Time (s);FP1;F3;Fz;F4;T3;C3;Cz;C4;Sampling Rate
0.000000;0.883236;0.443752;1.680675;-0.517926;-0.768593;0.915083;0.480045;1.362222;256
0.003906;1.827202;0.423024;3.410213;-0.154260;2.842027;0.357342;1.258741;0.981284;
0.007813;8.642846;6.732233;10.692360;8.278005;9.172304;7.189073;6.809253;7.020261;
0.011719;10.272751;9.052877;12.066580;11.427564;9.079273;9.850813;8.650846;9.157841;
0.015625;-1.475031;-2.932083;-1.409907;-1.422014;-1.510602;-1.586062;-1.299667;-1.809090;
0.019531;-5.085693;-8.039654;-5.680745;-6.131565;-3.540215;-7.016553;-5.274962;-6.748486;
0.023438;-0.055943;-2.752473;-0.202996;0.014812;1.695972;-1.247470;-1.389002;-1.667052;
0.027344;3.061179;3.074269;3.365162;5.125029;4.301915;5.972751;2.304379;4.373052;
0.031250;1.276316;2.422499;1.865645;3.639762;2.383206;6.096745;1.578189;4.032209;
0.035156;-7.866510;-8.761611;-7.831741;-7.889112;-5.513402;-4.878991;-6.970367;-6.472899;
0.039063;-7.726575;-10.005442;-7.344593;-9.484813;-4.940232;-9.062737;-7.328408;-9.063735;
0.042969;0.395866;-1.081685;2.159806;-1.333182;2.657703;-4.400617;0.485450;-2.462947;
0.046875;2.953937;2.946699;5.678840;1.921458;4.657333;-1.380781;3.486338;1.052191;
0.050781;-1.381394;-0.015108;1.049895;-1.069293;-0.284220;-1.588643;-0.413643;-0.682479;
0.054688;-10.589226;-8.787704;-10.097656;-9.857144;-8.940227;-6.594255;-9.119516;-7.656956;
0.058594;-8.053267;-6.577219;-7.990335;-7.269068;-6.138763;-5.097397;-7.735075;-6.513373;
0.062500;-0.288894;0.729118;1.379588;0.745216;1.262037;-1.043336;-1.485790;-1.668897;
0.066406;-3.710325;-3.711400;-1.402780;-3.589809;-1.975028;-5.769308;-4.360437;-6.196685;
0.070313;-9.024472;-10.655415;-7.420753;-10.323313;-6.764604;-11.460813;-8.670529;-12.418258;
0.074219;-11.827342;-14.862802;-11.097125;-14.290138;-8.080824;-15.052853;-10.837631;-16.477743;
0.078125;-4.760452;-8.138419;-3.171499;-6.689146;-1.034197;-8.932541;-4.419205;-10.274026;
0.082031;5.133893;1.735893;7.729957;5.032992;6.474827;1.945640;3.979818;0.712439;
0.085938;2.559950;-1.128830;4.355609;3.003119;2.912946;2.397725;1.292325;0.896004;
0.089844;0.101633;-3.442241;1.823436;0.573628;1.366807;0.862611;-0.600396;-0.641751;
0.093750;1.711758;-1.028740;3.365551;2.900371;3.123206;2.420189;1.158533;0.801131;
0.097656;5.383106;4.830130;5.552781;8.193511;4.390145;7.406188;4.501730;5.199563;
0.101563;4.818780;7.212304;3.717496;8.009603;2.756786;7.643964;5.315243;6.180869;
0.105469;-6.763574;-2.979680;-8.545680;-6.386460;-6.557140;-4.690702;-3.132369;-3.538028;
0.109375;-9.405582;-5.822123;-10.918975;-10.945130;-9.100527;-8.980233;-5.676602;-5.952784;
0.113281;0.209516;3.004584;-0.029451;-0.575345;-0.749730;-0.236286;1.735230;2.375561;
0.117188;10.425525;12.384078;11.675966;10.741729;9.920616;9.353581;10.761879;10.763781;
0.121094;11.998059;13.052114;13.086948;12.416498;11.442811;10.460776;12.209316;11.136640;
0.125000;0.185685;0.220613;-0.836557;-0.468036;-1.110286;0.336391;0.970122;0.217313;
0.128906;-2.716891;-2.455827;-4.291439;-3.007290;-4.739077;-0.784182;-2.517206;-1.594041;
0.132813;4.162856;6.218463;3.178118;5.383151;2.091393;6.368080;3.348648;6.352665;
0.136719;4.295482;7.768441;2.689351;5.607368;2.698184;6.035223;3.948876;7.960968;
0.140625;0.112168;2.516370;-1.901452;0.583924;-0.716533;1.204015;0.824975;3.564789;
0.144531;-3.603588;-4.041850;-4.562479;-4.071105;-2.967040;-2.513948;-2.411248;-2.154628;
0.148438;5.074412;3.275688;6.468537;5.005466;4.965452;5.130846;4.705971;3.720262;
0.152344;14.637045;13.646101;16.648758;15.104927;12.647045;13.560925;12.988408;12.525695;
0.156250;7.790692;7.962793;7.031676;6.892297;5.833323;8.027272;7.373523;8.130437;
0.160156;-0.083984;0.434541;-3.505066;-1.765783;-1.853507;1.607453;0.313601;2.001982;
0.164063;-0.580477;-0.582999;-4.563507;-1.236030;-2.412111;1.338630;-1.015876;1.025741;
0.167969;7.864176;7.569650;4.956722;9.024283;4.786821;8.899832;5.224636;7.927156;
0.171875;12.676626;12.691770;10.596148;14.218820;8.223289;12.100165;8.895528;12.393970;
0.175781;1.644207;2.046643;-0.856290;1.831622;-0.829357;0.993447;0.070011;3.439044;
0.179688;-4.174576;-3.865562;-6.372674;-3.606902;-4.544047;-2.874039;-4.193739;-1.323449;
0.183594;0.114985;-0.405875;-0.973342;1.438252;-1.017631;2.764110;-1.200417;1.116381;
0.187500;4.118598;3.751893;3.943392;4.812975;1.433745;5.717328;1.128072;3.137399;
0.191406;0.247505;1.397580;-0.327907;0.625609;-2.283898;2.062680;-2.244873;0.723357;
0.195313;-11.405570;-10.471404;-13.316245;-11.943364;-12.695291;-7.805861;-11.994429;-8.652193;
0.199219;-8.885099;-10.890115;-9.911903;-10.343144;-11.305723;-7.695481;-10.157956;-8.997766;
0.203125;3.787222;-0.838021;4.035511;3.023878;-0.458684;1.927897;0.336914;-0.291904;
0.207031;8.974073;4.618515;8.149391;9.642618;5.191109;8.723165;5.183950;5.586581;
0.210938;4.227743;1.651439;2.541686;4.727101;2.826959;5.245272;2.473465;3.225452;
0.214844;-7.572546;-9.450287;-8.349383;-9.737393;-5.901854;-9.566082;-6.326397;-8.326745;
0.218750;-6.196074;-8.021276;-5.757171;-9.357512;-4.973664;-11.956182;-5.293320;-8.706205;
0.222656;2.353529;1.433003;1.746358;1.095466;0.284756;-2.191433;0.619447;0.355026;
0.226563;-2.390234;-2.017345;-4.901632;-2.199410;-5.237376;-2.443934;-4.655385;-1.250352;
0.230469;-11.467465;-11.388868;-13.113297;-11.028747;-12.097907;-9.595723;-12.843754;-9.737897;
0.234375;-14.734804;-16.961550;-14.575319;-14.476792;-13.190184;-12.855666;-15.695274;-15.156266;
0.238281;-3.563424;-7.221117;-3.108102;-2.410386;-3.897502;-2.316892;-6.181369;-5.836630;
0.242188;8.066541;5.751875;7.498535;9.512546;4.200205;7.926578;4.016883;6.401144;
0.246094;2.021568;1.971511;0.817998;0.873766;-1.359470;0.450266;-0.080946;2.158093;
0.250000;-4.196022;-3.947140;-4.126110;-7.159613;-5.274181;-7.207660;-4.351770;-4.933661;
0.253906;-1.072193;-3.138753;-0.248008;-3.102133;-2.202640;-4.289799;-2.523469;-4.300303;
0.257813;8.289557;4.323259;8.145982;8.571350;4.605372;5.989279;3.390978;3.922272;
0.261719;9.826641;6.585095;8.285093;11.699386;5.468235;9.409565;4.113258;7.216999;
0.265625;-5.614072;-7.164838;-8.106713;-4.462161;-6.973808;-3.645226;-7.764681;-4.817007;
0.269531;-14.511595;-14.889369;-16.487173;-13.726916;-14.276134;-11.784393;-14.079880;-12.407495;
0.273438;-10.142452;-10.230386;-11.193825;-8.427299;-10.589848;-6.932572;-10.267805;-8.512362;
0.277344;-1.043120;-1.851977;-1.242558;1.098852;-2.204278;2.272841;-3.071652;-0.700113;
0.281250;2.619313;1.020132;3.194670;3.835999;1.794996;4.510098;0.172917;1.816016;
0.285156;-5.639810;-6.801001;-5.309130;-6.362927;-4.878952;-4.961951;-5.466326;-5.669990;
0.289063;-3.806103;-3.081256;-3.516290;-4.590726;-3.654082;-4.466066;-2.077456;-3.415700;
0.292969;8.164662;10.534082;8.359452;8.641834;5.719326;6.348606;8.766772;7.926139;
0.296875;13.871840;16.537867;13.395110;14.102476;10.022511;11.337215;12.972600;13.023178;
0.300781;11.678089;14.657838;11.259719;10.600044;8.804480;8.357200;11.208427;10.769817;
0.304688;1.557905;6.192694;1.578025;-0.876414;1.519480;-1.844204;4.277844;2.404299;
0.308594;0.391701;7.501932;0.559415;-1.006961;0.339629;-3.114622;4.562218;2.929742;
0.312500;6.680470;15.325428;5.341165;8.541649;3.622929;5.206845;9.363990;10.491369;
0.316406;4.576239;12.806487;0.935277;7.813374;0.592599;7.430947;6.521996;9.892395;
0.320313;-0.818084;5.582281;-4.167991;0.940931;-2.831949;3.340410;1.801844;4.301856;
0.324219;-4.362672;-0.177494;-5.581171;-4.937681;-3.920355;-2.817978;-1.011198;-0.875924;
0.328125;5.331824;7.332309;6.327096;4.188372;5.685010;2.525073;7.282183;5.856988;
0.332031;17.198334;16.533701;19.734760;15.991621;17.398497;11.520547;17.634661;14.739962;
0.335938;7.485710;4.885687;9.926283;4.123705;10.802402;1.806359;9.487862;4.424759;
0.339844;-8.152786;-10.137522;-6.954204;-12.710726;-2.479813;-13.507504;-4.396914;-10.905787;
0.343750;-12.285146;-12.873990;-12.201182;-15.337348;-7.186483;-17.009396;-8.836771;-15.373713;
0.347656;-3.659019;-3.932571;-2.468516;-4.563672;-0.155490;-7.638314;-1.949035;-8.072696;
0.351563;1.254470;0.414560;4.381249;0.784837;5.018069;-2.114703;2.219283;-3.692268;
0.355469;-9.255656;-11.919023;-6.294970;-11.378072;-2.988169;-11.397374;-6.944270;-13.075818;
0.359375;-12.231404;-17.179897;-9.350566;-14.195449;-5.712890;-13.758473;-9.837803;-16.181017;
0.363281;-5.139250;-10.527212;-1.528727;-4.489575;-0.933062;-5.127064;-4.237531;-9.259362;
0.367188;-1.400638;-5.066028;1.886132;0.943832;1.067472;1.351140;-1.546204;-3.852075;
0.371094;-4.210625;-6.395582;-2.009627;-2.513269;-0.873648;-0.376083;-3.951346;-4.914588;
0.375000;-12.801413;-15.108811;-11.236051;-12.939654;-6.628814;-9.527906;-11.030262;-12.527818;
0.378906;-8.969872;-11.386351;-6.864127;-8.558906;-3.396018;-6.631922;-8.031896;-8.840360;
0.382813;1.714811;0.032278;3.697997;4.173230;3.987232;4.241059;0.677846;1.837190;
0.386719;1.821452;0.788492;2.568908;3.905383;3.519805;4.494232;1.154839;2.218053;
0.390625;-3.140499;-3.767340;-2.947896;-3.130547;0.143950;-1.744642;-2.355709;-3.143685;
0.394531;-9.485388;-8.809827;-9.102835;-11.477787;-5.259365;-8.893180;-7.430685;-9.056653;
0.398438;-7.139456;-3.646518;-5.015949;-9.690232;-3.867271;-7.178898;-4.724362;-6.091526;
0.402344;-0.626628;4.715876;3.327015;-2.474967;2.386791;-0.243675;1.950681;0.804660;
0.406250;-2.786331;1.573205;0.001844;-3.825053;1.322825;-0.018601;0.022361;-0.510810;
0.410156;-4.518302;-1.713624;-4.605836;-4.084090;-1.812151;-0.200381;-3.161389;-1.966477;
0.414063;-1.756457;0.729708;-3.283679;-0.398262;-1.709552;2.492081;-2.069700;0.634769;
0.417969;8.416641;11.730631;8.796212;9.768178;7.402612;10.937794;7.833984;10.072909;
0.421875;11.952106;16.902704;14.389981;13.033795;12.101115;13.093177;13.322532;13.755448;
0.425781;-3.765738;2.367348;-2.563856;-3.788132;-1.149092;-2.255370;0.724373;-0.485742;
0.429688;-10.988121;-5.328300;-10.912985;-11.808379;-7.589055;-11.202720;-6.204997;-8.688266;
0.433594;-1.102877;3.084910;0.169167;-2.479582;1.561936;-5.042588;2.190693;-1.540685;
0.437500;10.900854;14.978199;13.995475;9.061105;12.244074;4.850796;13.750608;9.247965;
0.441406;11.080273;17.003483;13.734746;9.892472;11.706881;6.985438;15.017915;11.215158;
0.445313;-2.035889;4.611153;-2.632302;-2.129489;-0.029150;-1.603927;3.360096;1.200456;
0.449219;-2.745835;1.394543;-4.740624;-1.301685;-0.157322;-1.326780;1.189702;-0.101241;
0.453125;5.875628;6.955291;5.281932;8.595939;7.516514;5.874729;7.225204;6.248572;
0.457031;5.462183;6.426790;6.452134;8.077076;6.994376;5.710634;6.620121;6.194929;
0.460938;-0.352070;1.392165;1.899889;0.449403;3.272103;-0.265385;2.071367;1.077926;
0.464844;-4.978817;-5.344079;-2.484109;-6.996493;1.076337;-6.115138;-2.240088;-4.697813;
0.468750;2.824610;-0.698001;4.691859;0.579273;5.726218;0.275509;2.630995;0.598639;
0.472656;9.381775;5.299848;10.162284;9.141995;6.482195;6.683098;6.240280;6.483525;
0.476563;-1.084466;-2.394047;-1.021205;0.350106;-3.864987;0.026079;-2.985741;-0.392948;
0.480469;-12.398079;-10.740352;-12.297527;-9.383884;-10.988429;-5.922029;-11.875668;-7.340042;
0.484375;-13.186749;-12.863284;-13.603370;-10.513822;-10.082376;-6.949767;-12.892564;-8.507353;
0.488281;0.019287;-3.224010;-0.210065;1.133511;0.930589;-0.466885;-1.993895;-0.581986;
0.492188;9.898579;6.304686;10.099988;10.993312;9.138049;6.434325;7.701205;6.845986;
0.496094;1.876684;0.780399;0.897735;3.624970;1.645539;3.285631;1.953846;2.347061;
0.500000;-4.039624;-4.164944;-5.713611;-1.983269;-5.206863;1.054800;-4.096539;-0.945514;
0.503906;0.964193;-1.347999;-0.517403;2.670636;-2.838248;4.689342;-1.819538;2.753392;
0.507813;12.472911;8.613838;10.994460;14.254787;6.375700;14.310847;7.682364;12.471644;
0.511719;13.965382;12.193207;11.835650;16.010086;8.471988;16.621264;10.485487;15.238845;
0.515625;-3.592348;-2.211410;-6.638906;-2.574193;-5.466054;0.898968;-3.665238;1.145353;
0.519531;-10.940773;-9.002926;-13.188960;-9.904955;-11.495098;-6.794679;-10.822652;-5.342380;
0.523438;-0.053015;-1.019429;-1.216800;2.059636;-2.649135;2.647155;-3.015896;3.133262;
0.527344;11.715253;7.177267;10.216228;13.527430;6.718532;12.849920;6.035846;11.550678;
0.531250;10.342829;5.125993;7.702862;10.887612;5.015972;10.781338;4.932652;8.884193;
0.535156;-5.129268;-7.478480;-8.737290;-5.470023;-7.675701;-2.822109;-6.734770;-4.067805;
0.539063;-7.353611;-5.739964;-9.403348;-7.178057;-7.667133;-4.617632;-6.108423;-4.470387;
0.542969;4.974627;7.830057;5.408026;4.952436;4.655264;4.502109;6.007458;6.267988;
0.546875;12.007294;12.804796;12.581475;10.058973;10.838116;8.185358;11.676691;10.875954;
0.550781;11.541585;9.451923;10.392859;8.927379;9.055618;7.610672;9.724239;9.583485;
0.554688;5.214131;1.405654;2.643094;3.748547;1.938532;4.889871;2.664571;4.781976;
0.558594;5.840676;2.550340;4.542797;6.505617;1.231907;7.815909;2.562394;6.515369;
0.562500;8.776554;6.548619;8.530209;10.715686;2.519093;9.656341;5.218841;9.204579;
0.566406;1.699103;-0.288435;-0.534483;2.320732;-3.410488;1.532818;-0.430845;2.727115;
0.570313;-4.440406;-5.290882;-7.591976;-5.845270;-5.399755;-4.771372;-4.512002;-2.065455;
0.574219;-5.006894;-4.027261;-5.894921;-7.031483;-1.782556;-5.261188;-3.479116;-1.979399;
0.578125;4.967723;6.531296;7.266114;4.707824;8.277088;4.007204;5.583869;6.290495;
0.582031;13.108186;14.373681;15.322331;14.590682;13.367950;11.565644;11.702831;12.723521;
0.585938;2.295699;4.305601;1.031618;3.021041;0.871766;2.171756;1.598065;3.501353;
0.589844;-6.166802;-2.862350;-8.505799;-5.936040;-7.778100;-4.898703;-5.357657;-3.220476;
0.593750;-0.479267;2.394276;-0.865296;0.387772;-2.239277;0.500502;0.019032;1.671285;
0.597656;11.870621;13.662375;13.469655;13.196186;9.280975;10.994641;10.901321;11.720494;
0.601563;14.257344;15.608025;16.250509;15.143800;12.219669;12.187612;13.388049;12.710247;
0.605469;-1.588782;-1.364196;-0.857052;-2.425567;-0.592296;-2.374727;-0.185346;-2.404608;
0.609375;-7.879008;-9.380215;-7.656677;-9.070307;-6.566742;-7.765522;-6.385125;-8.170480;
0.613281;0.476133;-2.085083;0.294114;0.638854;-1.610878;0.301535;-0.623281;-0.042712;
0.617188;5.237173;3.718095;3.991391;6.367644;0.842757;4.876317;2.560972;4.766769;
0.621094;0.703802;1.573678;-0.919313;1.729212;-1.977149;0.607803;-0.668172;0.844947;
0.625000;-8.205663;-6.666219;-9.503155;-8.461443;-6.839103;-7.276087;-6.917346;-7.211262;
0.628906;-3.191265;-2.351460;-2.693695;-3.703134;-1.153888;-2.442586;-1.876068;-3.262821;
0.632813;6.180227;6.422144;8.256670;5.807892;5.990165;4.587553;6.029263;3.568609;
0.636719;4.088502;3.365658;5.406690;2.237304;3.526487;-0.471189;4.038098;-0.506262;
0.640625;0.510343;-1.329894;0.072150;-2.095564;1.144760;-4.889718;1.113883;-4.404199;
0.644531;-0.896735;-2.585701;-2.120666;-2.666386;0.696418;-3.947785;0.169570;-3.621814;
0.648438;4.595684;5.473366;5.203069;4.533008;5.785013;3.740080;5.422550;4.482329;
0.652344;7.388006;10.547228;9.079382;8.432151;7.549744;7.822394;7.978153;8.824552;
0.656250;-2.239271;-0.198731;-2.924588;-1.987133;-3.204280;-0.720620;-1.275886;-0.649256;
0.660156;-8.528134;-8.623837;-10.628652;-9.096164;-10.533143;-7.335235;-7.538810;-8.445510;
0.664063;-8.277179;-8.339946;-8.760062;-9.056530;-8.458755;-7.931442;-6.772590;-9.131771;
0.667969;-1.204787;0.558790;1.236514;-1.616569;1.667043;-2.127236;0.695109;-2.244248;
0.671875;5.181142;7.262329;8.648700;4.963049;9.051936;3.302766;6.664094;3.849256;
0.675781;1.374377;0.028395;2.191292;-0.299193;4.257803;-0.317212;1.889702;-0.595554;
0.679688;3.070284;-2.227956;1.101129;0.717068;2.676729;1.061200;1.283408;-0.297431;
0.683594;7.603784;2.749779;4.895257;7.083356;3.768049;7.076144;4.628999;5.346868;
0.687500;4.602820;4.972420;3.221987;6.473888;0.059189;7.333601;3.243719;6.118808;
0.691406;-4.333500;0.264651;-3.761926;-3.272408;-6.111132;-1.578787;-2.916258;-1.081648;
0.695313;-14.290510;-11.165103;-14.037157;-17.355671;-12.274624;-14.444353;-11.026478;-12.484181;
0.699219;-9.254721;-9.671614;-9.744879;-13.835971;-6.760718;-12.416328;-6.982337;-10.475203;
0.703125;-0.050071;-1.222097;0.232441;-2.785264;1.048167;-4.279704;0.522166;-2.978425;
0.707031;-3.120134;-3.141979;-1.746807;-4.113527;-2.801480;-5.398654;-2.992280;-5.184752;
0.710938;-9.408906;-10.777808;-7.419189;-9.816358;-9.144899;-9.383443;-9.621204;-10.649777;
0.714844;-10.173064;-17.055922;-7.906213;-11.967044;-8.449142;-11.305706;-11.291701;-13.232916;
0.718750;2.062910;-8.872079;5.488691;-0.452871;4.606336;-2.706130;-0.927596;-4.484422;
0.722656;11.801823;2.685707;15.357800;10.916595;13.714531;8.032002;8.472719;5.536798;
0.726563;5.192997;0.413369;6.143817;5.899467;5.745306;8.181793;3.990839;3.484600;
0.730469;-5.834282;-7.668540;-7.788295;-4.093938;-7.173646;2.365848;-5.460878;-4.085620;
0.734375;-15.682409;-16.135229;-19.232836;-13.563429;-16.251013;-7.705344;-14.546329;-12.983037;
0.738281;-12.348750;-12.042638;-15.152534;-10.365788;-10.828614;-9.235092;-11.339116;-11.075466;
0.742188;-3.661088;-3.726740;-4.640443;-2.919472;-1.978541;-4.932577;-2.985182;-4.751026;
0.746094;-9.393441;-10.587754;-9.124376;-11.409792;-7.368471;-10.947757;-7.590600;-11.384402;
0.750000;-13.710114;-14.495465;-11.500398;-17.051680;-9.873544;-14.819363;-10.544929;-15.820434;
0.753906;-7.056097;-6.510043;-3.743620;-9.534716;-1.655926;-8.703187;-3.196718;-9.179017;
0.757813;5.635427;5.969008;7.394777;5.496595;8.583939;3.662354;8.109555;2.770170;
0.761719;10.549092;8.869759;9.403213;12.493301;8.860672;9.646288;10.449498;7.190975;
0.765625;-1.259129;-4.352591;-3.381840;-0.665108;-2.551417;-0.610783;-1.201469;-3.044747;
0.769531;-8.090497;-9.392840;-7.430710;-9.793628;-5.480593;-8.252278;-6.224826;-8.342535;
0.773438;-5.306283;-3.901558;-3.149135;-6.624360;-1.957616;-6.414573;-3.325357;-5.185266;
0.777344;-1.758170;-0.540925;-1.842759;-0.804869;-1.486541;-1.732294;-1.850401;-2.112694;
0.781250;-1.781674;-3.005265;-3.297727;-0.238193;-2.382257;-0.663088;-2.996852;-2.753414;
0.785156;-6.294987;-9.885110;-6.161435;-7.474464;-3.781256;-6.129292;-6.641091;-7.797859;
0.789063;3.104305;-1.582939;6.051291;0.647661;4.814639;-0.161480;1.087840;-0.881631;
0.792969;15.718115;11.532459;18.008698;15.234841;11.308913;10.992843;10.721739;10.145302;
0.796875;9.264530;7.203253;7.110768;11.216978;1.321346;8.722268;4.670433;6.806710;
0.800781;-4.465224;-4.807365;-8.830096;-1.256849;-8.902741;0.081421;-6.552597;-2.891845;
0.804688;-9.076096;-10.432496;-10.206177;-8.097887;-6.444932;-6.348184;-9.364933;-8.248658;
0.808594;3.970991;1.669505;8.473992;1.862374;8.631503;-1.012636;3.585588;0.111759;
0.812500;13.511292;13.385321;18.310139;12.467216;14.024068;7.312391;13.023540;9.420270;
0.816406;2.810400;5.473791;1.144494;5.428850;-0.411958;4.209923;3.014640;4.443330;
0.820313;-6.934167;-4.029066;-13.207186;-2.586463;-10.860200;-0.747003;-7.468791;-1.923396;
0.824219;-7.822554;-5.387847;-12.296187;-4.916073;-10.048690;-2.362238;-8.954497;-3.433662;
0.828125;-2.245738;2.595548;-1.315199;-0.385618;-1.518894;1.103284;-1.796132;1.042351;
0.832031;-0.485506;7.019206;3.614124;1.219427;3.122420;0.991851;2.555355;2.473433;
0.835938;-10.115877;-4.080112;-7.455712;-10.500938;-5.406950;-9.647574;-5.824044;-7.467502;
0.839844;-11.917488;-9.000787;-10.388965;-14.459147;-7.762168;-12.854190;-8.565664;-10.988087;
0.843750;-4.544402;-2.378157;-2.211498;-7.016460;-0.479103;-6.735012;-2.275300;-5.001653;
0.847656;2.310531;5.392996;4.067002;2.338780;3.864126;0.907591;2.637958;2.113672;
0.851563;3.270946;5.689322;2.784886;5.706045;0.611822;5.124973;1.038321;4.373347;
0.855469;-3.665229;-3.525475;-4.962510;-2.811106;-5.564630;0.531089;-5.430608;-1.418111;
0.859375;-1.952354;-1.647710;-1.725299;-3.996292;-1.326760;-1.053214;-1.657205;-0.682764;
0.863281;4.126683;7.811692;3.989840;2.126592;2.637191;0.723763;5.144607;4.669480;
0.867188;2.268528;8.790494;-0.802879;2.998646;-3.702719;-0.242417;2.409366;4.389918;
0.871094;-3.423891;2.768679;-7.133753;-0.962673;-8.911476;-3.010860;-3.801320;-0.076917;
0.875000;-8.921256;-5.190166;-9.620550;-9.283067;-7.170231;-9.999804;-7.578548;-7.185043;
0.878906;-2.378514;-0.515224;0.327091;-6.359397;3.565450;-10.453623;-0.542777;-5.175732;
0.882813;8.278083;8.599298;11.418434;3.969077;10.840063;-4.624667;8.071347;2.141919;
0.886719;8.616676;7.115242;9.896862;5.984965;6.970966;-1.739763;7.158632;3.265729;
0.890625;1.350511;0.726524;-0.365151;1.770614;-1.570764;-0.593565;0.682486;0.462594;
0.894531;-10.665055;-7.776635;-15.960772;-7.474149;-12.856226;-3.251593;-9.622803;-5.976160;
0.898438;-8.644869;-5.043835;-13.262785;-5.465178;-10.502604;-1.205549;-8.319684;-4.503493;
0.902344;3.659949;3.262402;3.241986;4.649215;1.562061;3.579677;1.259562;2.195779;
0.906250;1.296764;-2.169161;1.712987;1.776733;0.082936;-0.304412;-1.715880;-1.127125;
0.910156;-7.419833;-9.551375;-8.614001;-5.447922;-6.613419;-6.121636;-8.743544;-6.792873;
0.914063;-8.836103;-9.273940;-9.530769;-8.986167;-6.254639;-9.834728;-8.687772;-8.202125;
0.917969;0.287177;-0.026759;1.048779;-3.240672;-0.108789;-4.970794;-1.128302;-1.717909;
0.921875;4.659885;4.613873;3.582417;2.636948;-1.588878;2.438498;0.539061;3.583289;
0.925781;-4.935039;-5.601927;-9.676216;-3.722349;-12.018663;0.532775;-9.304605;-2.020502;
0.929688;-3.893190;-6.537154;-8.252990;-1.427927;-7.744785;3.562335;-7.836855;-0.618983;
0.933594;7.384473;3.490069;6.811790;8.876352;6.248279;10.081657;3.628767;7.471362;
0.937500;13.316092;9.883974;15.756136;13.006758;12.438950;10.168264;9.783060;10.627584;
0.941406;9.338338;7.137878;11.431160;8.466311;6.937002;4.827397;6.357144;7.186474;
0.945313;-1.324481;-3.164373;-2.985686;-1.593606;-5.613631;-2.265553;-3.634842;-0.155681;
0.949219;3.771049;1.119641;0.225036;4.977577;-3.040740;4.355366;-0.317391;5.311537;
0.953125;17.379223;14.446720;15.897214;19.528862;10.875625;16.865561;11.738453;16.833054;
0.957031;18.890274;17.632847;19.192379;20.935728;15.542124;20.429895;14.929282;18.957129;
0.960938;10.316111;11.554218;9.623000;11.998167;8.608662;16.579550;9.237865;13.466736;
0.964844;-4.253723;-1.464900;-6.787029;-4.582809;-4.630525;2.276344;-2.294094;0.441074;
0.968750;-7.678381;-4.479865;-9.072433;-10.853503;-6.420013;-9.360003;-4.310889;-6.261042;
0.972656;-0.123171;1.831316;1.479837;-4.887724;2.656242;-8.827787;2.533204;-2.796297;
0.976563;2.252595;1.998251;4.819964;-1.631451;6.340603;-3.230372;3.759012;0.207305;
0.980469;-0.816978;-1.413394;0.537504;-1.196769;2.906563;1.299420;0.110222;0.977532;
0.984375;-6.885438;-6.059147;-7.396543;-4.819046;-3.952082;-1.308873;-5.536304;-2.669981;
0.988281;-1.347164;-0.844965;-2.237134;0.106524;0.438050;0.473601;-1.132017;-0.218277;
0.992188;10.218976;7.462726;10.320951;9.009884;10.620518;5.874427;8.322437;6.114356;
0.996094;6.326422;1.918571;6.799406;3.012440;6.636911;1.480824;5.091695;2.330163;
1.000000;-3.353296;-4.068789;-3.139743;-4.871847;-2.628418;-3.173225;-2.235416;-2.657317;
1.003906;-7.130791;-3.281663;-7.563570;-5.973963;-5.504328;-3.122233;-4.495585;-3.393869;
1.007813;1.354004;4.970444;1.165344;2.793347;3.347469;3.431132;3.229156;3.032545;
1.011719;10.657663;10.493062;11.561445;11.583073;12.247889;9.469536;11.210280;9.217277;
1.015625;2.613724;0.383657;3.837956;2.955769;4.309359;2.327862;3.895681;1.742944;
1.019531;-4.491747;-4.510108;-2.315493;-4.174333;-3.229293;-3.127246;-2.140863;-3.683261;
1.023438;-1.167906;1.952358;2.370525;-0.782425;0.599990;-0.125256;1.760048;0.134498;
1.027344;3.956214;7.441719;6.776187;4.575433;7.018093;5.416083;6.568191;5.578165;
1.031250;3.192904;4.858827;3.119972;4.967441;5.869975;8.041673;4.537081;6.391426;
1.035156;-5.463699;-5.719017;-7.274665;-3.771808;-3.759124;2.351904;-4.611912;-0.534467;
1.039063;-2.003651;-2.833649;-1.271837;-1.284133;-1.770505;2.820058;-2.031553;0.891853;
1.042969;7.938251;7.559182;11.571824;7.887585;8.034076;7.396651;7.395495;7.001276;
1.046875;5.646324;5.263713;7.885619;5.182667;7.844308;3.918181;6.107144;3.727140;
1.050781;-1.369717;-2.735526;-3.693456;0.441311;-0.148756;1.042867;-1.476143;-0.828006;
1.054688;-5.509433;-7.602397;-11.492876;-0.149656;-9.142403;2.954207;-8.023481;-1.097538;
1.058594;1.058755;0.474643;-2.696602;6.674429;-5.615917;9.430875;-2.836430;6.014688;
1.062500;5.985277;7.816195;7.549261;7.188874;1.943645;7.864751;4.013405;8.175977;
1.066406;-2.834411;-0.967593;-0.349260;-6.008375;-1.940976;-5.555481;-1.705180;-2.431442;
1.070313;-7.332102;-7.263784;-7.657994;-9.640391;-4.949579;-9.661634;-5.918119;-7.082259;
1.074219;-3.536558;-3.923406;-4.800055;-2.875368;-2.219147;-3.130982;-2.937458;-2.672285;
1.078125;5.574829;7.086538;7.775253;7.108688;6.252759;6.097695;6.246371;5.906991;
1.082031;9.657323;12.445135;14.457449;10.207277;11.068541;8.065884;10.964718;8.793566;
1.085938;0.048890;0.927248;1.733052;-0.811092;1.638539;-1.318585;1.523687;-0.634461;
1.089844;-3.159874;-4.881283;-5.032641;-4.045743;-4.180158;-3.025610;-3.078874;-3.833424;
1.093750;2.574874;0.725280;1.720206;1.812881;0.176088;2.579879;2.226625;1.332071;
1.097656;9.235732;8.731763;11.964512;8.223962;8.649634;6.645931;9.650218;6.910289;
1.101563;10.292695;10.061909;13.704150;10.320631;12.054456;6.654189;11.271514;7.627187;
1.105469;-1.119327;-2.035260;-0.937193;-0.261569;2.314424;-1.252433;0.992736;-1.617054;
1.109375;-5.115448;-6.187592;-5.867106;-5.182182;-2.376062;-3.988846;-3.180731;-5.014362;
1.113281;2.230067;1.386641;3.608809;0.467744;2.957530;0.118867;2.667195;0.235769;
1.117188;7.258676;6.947228;9.400503;6.532335;6.491294;4.876465;6.916842;5.269652;
1.121094;4.741530;4.795121;5.127320;8.330247;2.541636;8.436804;4.516276;6.445919;
1.125000;-4.157272;-5.288780;-6.063702;1.294705;-6.675514;5.061547;-3.925268;0.461906;
1.128906;-1.292979;-3.820313;-2.412153;2.019193;-3.116634;4.603574;-1.800980;0.471768;
1.132813;4.379500;3.065336;5.353501;4.971944;3.675539;4.062683;3.849434;2.222725;
1.136719;-4.672719;-2.512622;-4.079332;-5.010660;-3.530508;-4.438893;-2.936638;-5.445309;
1.140625;-12.473476;-9.235217;-13.032444;-12.010943;-9.268031;-8.316481;-9.461153;-10.008056;
1.144531;-8.554415;-8.908504;-8.715782;-8.632294;-4.654365;-4.978924;-6.680811;-6.446504;
1.148438;6.482172;3.099502;8.330142;4.792376;7.593054;3.683075;6.045937;4.620366;
1.152344;12.944964;11.015555;14.863761;11.210134;11.349086;6.519959;12.096462;9.722352;
1.156250;-1.543395;-0.305306;-2.302013;-2.344775;-1.368794;-3.851784;-0.019520;-0.851127;
1.160156;-11.649611;-9.318082;-12.686208;-11.893708;-8.224837;-9.994910;-8.574052;-8.026897;
1.164063;-6.449589;-5.553655;-5.727320;-6.946566;-2.879336;-5.805179;-4.205880;-3.927305;
1.167969;5.901930;5.993435;6.692998;5.989870;5.336309;3.982174;5.697459;6.035683;
1.171875;7.027180;8.266121;6.299675;8.203199;4.175466;5.163473;6.231261;6.807457;
1.175781;-9.081234;-7.295031;-10.891498;-8.642552;-8.432192;-8.602517;-7.062685;-7.785167;
1.179688;-12.895954;-12.788508;-13.619977;-13.731165;-10.439592;-13.313141;-10.136899;-12.844074;
1.183594;-1.504938;-4.316391;-0.558912;-3.457970;-1.825463;-5.807233;-1.555534;-5.384218;
1.187500;4.893728;1.231972;6.230967;2.859647;2.160279;0.361400;2.557750;-0.453998;
1.191406;-1.089793;-2.498375;-1.104704;-1.347722;-3.126246;-0.327017;-2.664083;-3.182844;
1.195313;-12.825494;-12.411835;-14.943792;-12.230353;-12.530638;-8.054901;-11.831439;-10.850316;
1.199219;-8.401792;-8.415840;-10.194895;-7.859025;-8.466347;-7.620858;-7.659152;-7.277252;
1.203125;3.634162;1.957977;3.308975;4.282382;1.670762;-1.381148;1.747938;1.364770;
1.207031;2.592213;-0.042908;2.727535;2.868934;1.542634;-1.804517;0.456202;-0.254624;
1.210938;-7.517440;-9.771100;-7.017112;-7.876725;-5.461085;-8.869500;-6.882040;-8.986940;
1.214844;-16.379208;-18.648722;-15.888024;-17.556559;-12.362566;-18.644150;-13.443004;-17.684193;
1.218750;-9.852105;-11.616073;-8.310131;-10.763933;-6.894702;-15.332343;-7.760223;-12.608548;
1.222656;-1.351539;-1.083217;1.689301;-1.583435;0.633259;-5.155785;-0.344918;-3.311068;
1.226563;-6.470039;-5.194280;-4.384095;-7.323189;-4.192763;-4.425916;-5.212150;-5.009299;
1.230469;-8.998116;-9.072740;-8.872348;-10.654910;-8.096439;-5.637217;-8.587320;-6.587849;
1.234375;-4.943143;-7.227555;-5.600528;-6.928828;-5.783285;-5.433433;-5.987223;-4.813082;
1.238281;3.181062;0.337706;3.446018;2.779463;1.850865;-0.148492;0.671163;0.694470;
1.242188;4.566513;2.717509;5.063387;6.655868;4.357651;3.437471;1.913964;2.104560;
1.246094;-6.654137;-8.205536;-7.547811;-5.087559;-4.948220;-3.673249;-7.107898;-6.992185;
1.250000;-8.320345;-10.237322;-8.513071;-8.586299;-6.967274;-5.503176;-7.630859;-8.518416;
1.253906;0.034588;-1.811631;1.873487;0.129978;0.125427;0.636219;-0.047648;-1.324636;
1.257813;7.287559;6.557961;9.615105;9.356321;7.413126;6.721921;6.394165;5.570571;
1.261719;6.247413;7.409952;7.193811;8.222765;7.362925;4.874835;6.213614;5.426447;
1.265625;-4.540704;-1.853424;-5.508615;-5.452153;-2.590860;-5.641656;-2.252557;-3.323043;
1.269531;-3.637128;-0.599873;-3.807305;-5.517920;-2.606363;-5.078077;-0.989893;-2.074452;
1.273438;6.558101;8.108493;8.475188;5.824192;6.628813;3.705428;7.887353;6.754390;
1.277344;11.427396;10.813046;13.754611;10.837759;11.033633;7.987419;11.642838;10.393333;
1.281250;9.314314;7.810582;10.848371;7.985623;8.934095;6.593955;9.265128;7.795238;
1.285156;0.884459;0.370722;1.097075;-0.473567;2.356867;0.641249;2.233467;0.966398;
1.289063;3.157539;5.467782;2.823987;4.564161;4.482096;6.154302;5.049750;6.064629;
1.292969;11.025113;15.724039;10.114300;15.219975;9.859257;17.017380;12.005760;16.405443;
1.296875;6.654862;12.199915;4.418178;9.746643;6.030446;13.776697;7.817969;13.097256;
1.300781;-3.338353;2.743735;-5.859317;-2.813615;-0.405222;1.866373;-0.310560;2.318856;
1.304688;-8.292353;-2.560376;-9.610049;-8.730784;-3.772420;-5.614894;-3.122290;-4.238180;
1.308594;1.488383;6.937390;3.122127;2.090186;3.425036;2.417024;6.631756;3.357157;
1.312500;10.632006;16.154387;14.148026;11.409738;11.002113;11.114737;14.344069;11.182325;
1.316406;3.992990;7.251037;5.438353;2.427412;6.072788;4.226499;6.073150;4.192623;
1.320313;-2.582640;-2.106481;-3.728215;-5.686310;0.405814;-4.854121;-2.456913;-3.504357;
1.324219;-3.263807;-2.209306;-4.379447;-5.895049;-0.618957;-8.333372;-3.455183;-4.806548;
1.328125;2.450540;6.634857;3.463025;1.653329;3.507929;-3.113505;2.686360;1.340662;
1.332031;3.666062;9.574347;4.783756;4.774475;1.923271;0.895713;3.797793;4.171193;
1.335938;-7.780386;-3.949339;-10.868451;-7.229681;-11.312063;-6.877877;-7.859026;-5.636483;
1.339844;-9.165603;-8.974647;-15.338440;-10.807045;-12.846731;-8.287937;-10.600295;-8.644340;
1.343750;-0.118703;-1.527422;-4.622062;-3.550148;-2.531776;-1.567844;-2.690803;-2.561442;
1.347656;5.947360;5.282085;5.705496;2.175317;4.357746;1.792626;3.465205;1.677372;
1.351563;4.251179;3.865155;6.751981;0.491286;3.582022;-2.379608;3.140289;-0.945950;
1.355469;-6.562555;-8.791307;-5.292039;-11.449562;-4.360256;-13.226493;-5.240528;-11.439639;
1.359375;-7.342979;-11.781890;-8.662246;-11.529650;-4.843066;-12.378926;-6.358547;-11.703999;
1.363281;1.808217;-3.274789;-0.931151;0.316874;0.788382;-1.024364;0.128135;-1.595520;
1.367188;5.092128;1.376954;3.586238;4.549685;3.119523;3.670452;3.145012;3.230366;
1.371094;0.898131;-1.472604;2.776709;-1.159917;3.316162;-1.009688;1.393726;-0.712803;
1.375000;-3.668399;-8.106872;-1.234798;-8.007954;1.457834;-6.484679;-2.706918;-7.093126;
1.378906;7.186817;-0.476395;6.234741;3.655521;6.005222;4.033846;3.551067;1.417176;
1.382813;16.552870;10.246931;12.405196;17.238462;8.345308;16.013613;10.076819;12.657946;
1.386719;6.447686;5.078106;3.505215;9.639184;0.774140;8.982418;3.717905;7.011555;
1.390625;-1.962901;-0.802973;0.085611;-0.205740;-0.868506;-1.446924;-0.557602;-1.433683;
1.394531;-2.222187;-1.316714;1.220733;-2.831921;0.945097;-3.073439;-0.045016;-3.237506;
1.398438;1.786924;3.505904;0.446490;2.176627;-0.330426;5.192838;2.287616;2.921441;
1.402344;2.721833;4.962218;-3.229716;5.688504;-5.195900;9.630165;1.179415;6.549840;
1.406250;-5.489882;-4.632851;-10.270591;-2.624582;-10.586873;-0.396364;-7.281585;-2.374638;
1.410156;-10.334929;-9.794286;-10.518042;-8.140786;-8.093025;-9.363881;-11.980443;-9.880621;
1.414063;-10.098541;-9.045462;-9.285629;-8.158616;-6.151937;-11.705771;-12.397403;-10.555463;
1.417969;-2.409592;-2.316702;-3.849119;-3.121286;-2.729667;-5.246886;-5.018664;-2.881958;
1.421875;7.700433;5.773833;5.296654;3.130260;5.045698;5.676565;6.426659;6.851390;
1.425781;6.169776;2.858292;3.655254;1.585426;4.255403;7.850264;5.652830;6.053151;
1.429688;4.252851;1.776498;1.535416;4.840429;0.740302;8.682041;0.805384;5.398176;
1.433594;5.761232;4.955767;2.970530;10.110091;1.167491;9.680550;-0.243232;7.759185;
1.437500;7.388453;6.738057;4.537922;9.854346;5.809318;9.180546;2.915217;9.262896;
1.441406;4.901125;4.000829;1.643794;3.690962;7.087754;6.233177;4.384214;6.543767;
1.445313;-7.427005;-7.053109;-10.518770;-10.846695;-3.160269;-6.047500;-3.908011;-5.499228;
1.449219;-8.737490;-6.654734;-9.552430;-12.140258;-6.005068;-11.604281;-4.542471;-8.482697;
1.453125;2.628024;4.789361;3.313962;0.466839;1.050289;-4.142838;5.079578;0.970470;
1.457031;8.483206;9.887303;8.272779;6.864019;4.298241;3.650678;11.276335;7.391533;
1.460938;8.265782;7.959808;7.464824;6.588232;4.412848;7.268565;12.215194;7.797749;
1.464844;6.123294;2.232106;5.691476;3.960181;2.967630;6.723943;7.779747;4.602733;
1.468750;9.581512;5.226111;10.932225;6.461496;6.857420;9.469804;7.568539;6.777833;
1.472656;5.986217;7.353812;9.860929;2.443281;7.524557;7.465308;6.272216;5.164132;
1.476563;-11.245911;-3.967185;-6.654724;-12.242358;-2.532262;-4.615181;-4.422153;-7.671757;
1.480469;-19.023132;-11.360079;-15.411214;-14.634421;-7.739346;-10.267739;-10.873500;-14.134904;
1.484375;-14.398405;-10.736943;-12.684271;-6.840710;-7.759116;-8.681026;-11.539348;-11.918380;
1.488281;-2.952161;-2.826189;-3.401958;4.135161;-4.338246;-1.353263;-6.649813;-3.570399;
1.492188;6.830681;5.956298;4.396253;12.733294;0.923164;8.302353;0.300413;5.619707;
1.496094;5.477221;4.805566;1.598647;12.140511;0.288735;11.810390;0.042307;6.844984;
1.500000;3.087186;3.010148;0.090089;12.629431;-0.901855;12.136646;-0.835023;6.243901;
1.503906;0.608886;1.032387;0.411538;10.067878;-2.049513;5.327218;-1.581443;2.701077;
1.507813;-0.921928;-0.595771;0.819235;4.703078;-1.328355;-2.881694;-1.746054;-1.122394;
1.511719;-1.205699;-1.984900;-0.448509;2.337879;-0.638213;-5.150700;-2.499288;-2.382453;
1.515625;-4.968167;-7.246579;-6.236616;-0.016932;-5.458258;-7.365154;-7.185266;-5.779545;
1.519531;0.177681;-2.061286;1.039082;7.810185;-1.175124;-3.182888;-2.431556;-1.780194;
1.523438;8.451972;7.903024;14.410397;16.325623;9.445819;4.492124;6.903195;5.672490;
1.527344;7.879902;8.871419;14.803155;13.536000;9.596560;8.057306;7.306748;7.529746;
1.531250;1.875137;1.894467;4.382339;5.557580;-1.744370;5.485085;-0.339266;4.136028;
1.535156;-7.082780;-10.230883;-7.191468;-5.290252;-14.483874;-5.640581;-11.156324;-5.598357;
1.539063;-5.916308;-10.198540;-2.019526;-4.596510;-10.809669;-8.283215;-9.911849;-7.499298;
1.542969;2.226010;-0.789967;10.397189;4.090161;0.974801;0.225129;-0.563762;-0.567579;
1.546875;5.955374;3.437094;12.128020;6.440731;3.848257;6.383867;3.551796;4.179664;
1.550781;6.174610;3.754008;7.930579;4.214288;1.042721;6.880166;3.439825;5.137125;
1.554688;-2.077563;-2.575717;-0.350554;-5.874472;-4.469731;-2.518512;-2.467672;-2.440710;
1.558594;-6.540720;-3.699589;0.025898;-10.199381;-2.850618;-9.030485;-3.716112;-6.607966;
1.562500;-1.913788;1.580635;6.639762;-3.914876;2.358931;-4.541346;-0.054546;-1.911010;
1.566406;-0.288785;-0.197332;2.434868;-0.677088;-1.378322;1.283469;-3.079358;0.838274;
1.570313;0.421298;-2.608090;-3.972582;1.092633;-5.903114;5.016775;-6.171535;2.053457;
1.574219;-1.546795;-4.053723;-6.099921;-1.872925;-7.104569;2.015806;-7.162943;-0.794285;
1.578125;-2.973722;-1.151869;-0.902466;-4.283229;-3.075317;-0.068999;-3.830198;-2.218288;
1.582031;-4.973633;0.742449;1.988432;-6.473843;-0.207598;-1.271431;-1.104528;-2.442912;
1.585938;-11.511475;-8.033274;-7.003900;-15.274293;-5.295527;-9.166724;-6.383524;-8.697600;
1.589844;-6.404506;-9.265918;-6.535784;-11.817614;-2.923628;-7.192001;-4.652081;-6.965722;
1.593750;4.354030;-1.757429;3.609866;-0.508425;4.653624;1.648266;2.862597;0.626591;
1.597656;7.163861;3.969853;9.377284;3.554803;6.651869;3.189712;6.108525;3.758025;
1.601563;1.524110;3.341038;4.300462;-0.280574;1.103465;-1.350997;2.535730;1.661209;
1.605469;-9.545000;-5.928327;-10.814582;-10.595188;-9.381614;-7.884929;-7.156471;-5.714230;
1.609375;-7.302936;-4.864071;-10.567971;-9.281591;-6.345720;-3.905195;-5.111972;-4.257161;
1.613281;4.683397;5.453564;3.803936;0.451174;5.595407;4.987755;6.045697;4.296216;
1.617188;11.572057;11.509553;12.985619;6.310497;10.387534;8.902578;11.382707;10.114753;
1.621094;11.785763;11.546298;12.568012;8.391266;7.663530;9.473972;9.291429;11.792418;
1.625000;4.793828;3.720980;2.671838;2.139772;0.014522;4.106882;1.648837;5.894984;
1.628906;7.105744;4.972018;3.760533;4.114936;3.291727;5.712202;4.594303;7.019538;
1.632813;14.498017;12.175594;11.850889;12.869884;11.348840;13.133973;12.477076;13.833056;
1.636719;8.837414;7.358196;6.285449;8.814878;5.222766;10.355927;7.065083;9.654081;
1.640625;-0.867473;-1.134428;-2.981781;-1.090675;-4.022976;1.433146;-2.156072;-0.036428;
1.644531;-6.491336;-6.095386;-7.449076;-9.452431;-4.885301;-7.224340;-5.579135;-7.578670;
1.648438;-2.566842;-1.365394;-2.299582;-8.155823;3.965398;-7.272020;0.817877;-5.510696;
1.652344;2.608143;4.307521;3.080267;-4.144517;9.108121;-3.310384;6.596775;-0.838063;
1.656250;0.260642;0.444213;-0.419037;-6.500558;2.488738;-2.785893;2.629974;-2.223456;
1.660156;2.066941;0.669594;0.450080;-1.588580;-0.556984;3.234403;1.421625;1.235836;
1.664063;2.378592;2.435665;-0.115448;1.956759;-0.476182;5.659343;0.863474;3.667054;
1.667969;-1.880349;1.547614;-5.478401;-1.722889;-1.952233;0.418815;-1.863535;0.686353;
1.671875;-6.337524;-2.182129;-11.989011;-6.006288;-5.785401;-3.529890;-5.567435;-2.831338;
1.675781;-9.584759;-8.889736;-17.434652;-9.144056;-10.014812;-4.447828;-9.684797;-5.346156;
1.679688;0.048575;-2.550446;-5.611248;-0.435504;-0.416348;1.075411;-1.030571;1.296997;
1.683594;8.114221;6.513112;7.630073;4.233547;10.559535;0.579081;9.201258;4.963192;
1.687500;1.071288;3.646623;2.343636;-5.343489;6.152769;-7.212752;6.029903;-1.471470;
1.691406;-8.865236;-4.470138;-10.926003;-12.408290;-5.981798;-8.566595;-3.665083;-6.514634;
1.695313;-13.276361;-11.893774;-18.086889;-13.159784;-13.668082;-7.612753;-11.284464;-8.825587;
1.699219;-4.095848;-5.723761;-5.896485;-3.242261;-5.322474;-3.031040;-5.256822;-3.322898;
1.703125;4.371125;2.958620;4.842015;4.851731;2.603283;0.926078;2.445978;2.466893;
1.707031;-1.298721;-1.183132;-4.150194;-0.731075;-4.338688;-2.466002;-1.741643;-0.952787;
1.710938;-8.675109;-7.697124;-13.335564;-8.432990;-9.813832;-7.987699;-6.802784;-6.554980;
1.714844;-11.621080;-10.784272;-13.336102;-13.338042;-6.728536;-13.836974;-8.036647;-11.039294;
1.718750;-2.189552;-1.845486;-1.242843;-3.003508;3.125499;-6.357156;-0.721570;-3.647403;
1.722656;8.657728;7.840456;7.542782;12.296975;6.236068;9.681942;5.611589;7.839487;
1.726563;3.192440;1.284728;-1.172696;8.635406;-2.044357;10.539679;-0.555742;4.631555;
1.730469;-4.356028;-5.700229;-7.260164;-0.742194;-2.593037;-0.036586;-4.656131;-2.870877;
1.734375;-5.498763;-5.739168;-4.636130;-4.616527;2.711413;-9.356506;-2.797976;-5.826602;
1.738281;-0.092402;0.485046;4.079634;-1.294713;7.519217;-9.244908;2.869483;-2.622709;
1.742188;4.648133;4.904358;10.704466;0.507478;9.857255;-7.394177;7.019671;-0.320270;
1.746094;0.735416;-0.716760;4.480278;-5.757288;4.716853;-10.249165;2.822319;-4.496091;
1.750000;0.538898;-0.877691;-0.725732;-1.924987;0.972081;-2.603354;1.477032;-0.869491;
1.753906;2.686647;3.976160;-1.731448;6.412212;-0.338650;8.066615;3.182170;6.296163;
1.757813;1.539166;6.113303;-1.135842;6.151088;-0.266437;7.180003;3.869850;6.212806;
1.761719;-3.002010;2.343449;-2.812596;-1.280551;-1.434198;-2.180570;1.330713;-0.483447;
1.765625;-8.483851;-6.781413;-9.503512;-8.333294;-6.415258;-8.284775;-5.234136;-7.063455;
1.769531;-0.036392;-2.259466;-1.831520;2.407032;0.101146;2.946819;-0.257738;0.991419;
1.773438;10.772804;8.697806;11.639445;14.477444;11.589332;14.583880;9.990039;10.980206;
1.777344;10.176133;10.912565;12.580124;11.230430;13.080575;12.448769;11.557440;9.792586;
1.781250;6.296877;8.127271;6.392374;5.308139;8.262097;7.337704;7.866971;6.000543;
1.785156;2.378993;2.110293;-0.312383;1.668212;1.994349;2.527687;2.593389;2.353699;
1.789063;7.109855;5.220891;6.982305;7.700008;5.406956;3.527220;6.768213;5.694392;
1.792969;11.580519;10.364722;15.824273;11.974784;10.171407;4.434659;11.991983;8.679018;
1.796875;1.499569;2.338776;4.046475;0.109523;1.444005;-4.153646;2.928816;0.087116;
1.800781;-11.489657;-8.472730;-14.230602;-13.764660;-9.361076;-14.300468;-9.666961;-10.380955;
1.804688;-15.402431;-12.266937;-19.444296;-17.646839;-10.319426;-17.618973;-13.161817;-13.778924;
1.808594;-3.431880;-1.336580;-3.535456;-3.149119;1.154779;-5.220300;-1.604766;-3.058779;
1.812500;8.786759;9.063331;10.853144;11.874893;8.893834;8.079928;8.721911;7.636616;
1.816406;5.122787;1.806856;4.758900;7.068948;2.592579;4.727221;3.153599;2.763677;
1.820313;-2.889987;-7.906406;-5.073798;-1.461968;-4.440397;-2.023078;-5.021051;-4.664930;
1.824219;-7.533314;-10.666383;-9.215310;-3.078259;-7.931654;-3.583617;-8.308637;-6.803620;
1.828125;-0.033665;-1.063663;0.559781;7.260973;-0.949431;4.513889;-0.681398;1.108286;
1.832031;6.338335;6.513752;10.072704;11.218128;8.594901;8.464931;6.719135;6.059078;
1.835938;-9.660953;-7.821670;-4.327973;-12.253089;0.597340;-10.177374;-4.595835;-9.673869;
1.839844;-21.217216;-18.223660;-16.854141;-27.087307;-9.573196;-23.441616;-14.003629;-20.342112;
1.843750;-11.604135;-9.493499;-10.637656;-13.330917;-8.504148;-12.098529;-8.070840;-10.011202;
1.847656;2.148736;3.551679;1.780096;5.528840;-1.498755;4.975043;2.089762;4.270698;
1.851563;3.062556;4.333363;5.039069;7.755356;1.403006;6.539540;3.651171;4.688735;
1.855469;-7.961327;-8.605217;-6.025008;-4.786507;-6.235188;-4.514104;-5.851993;-6.761193;
1.859375;-7.813463;-9.970454;-8.804792;-4.357292;-9.083406;-3.000780;-7.529526;-6.185620;
1.863281;-0.090538;-1.846919;-1.946826;4.653258;-4.219552;5.434083;-2.103133;1.993189;
1.867188;0.316941;-2.009677;1.126814;4.692139;-0.375191;3.948449;-1.641948;1.051472;
1.871094;-2.605011;-7.369455;-0.296300;1.435761;-1.056688;-0.930140;-4.765230;-4.277198;
1.875000;-4.090234;-11.032349;-4.966678;-0.384198;-6.068185;-1.840766;-7.741973;-6.658443;
1.878906;5.205217;-0.399980;3.112747;8.066591;1.457061;7.626299;1.513894;2.580285;
1.882813;9.065365;8.831161;10.855286;9.742144;11.073000;10.713099;9.327025;7.702347;
1.886719;-7.463771;-2.520540;-2.334262;-9.690009;1.019920;-5.986629;-2.317628;-5.928513;
1.890625;-21.978298;-15.567210;-16.198940;-24.565836;-12.991578;-21.005119;-15.427878;-18.630564;
1.894531;-22.398441;-17.711401;-18.149775;-23.492727;-16.127155;-21.192699;-17.504684;-18.747908;
1.898438;-6.884884;-5.247488;-4.874166;-5.752779;-5.080144;-4.723239;-6.087382;-4.670194;
1.902344;8.859312;6.608241;9.607129;10.978308;6.250370;10.312822;5.701081;7.978485;
1.906250;6.281839;1.426485;7.449812;6.421198;3.201740;5.303542;3.278077;3.455672;
1.910156;2.745883;-0.846714;6.036647;2.429106;1.372733;0.435999;2.028934;0.697013;
1.914063;5.856426;4.581758;9.462055;7.929799;4.835377;5.704167;5.487987;6.279844;
1.917969;8.185097;7.593457;8.808191;12.787566;4.410988;11.486166;5.425931;10.369859;
1.921875;2.557505;1.734531;-0.922084;8.360186;-4.481893;8.833641;-2.275089;5.768754;
1.925781;-9.431806;-10.467739;-15.056805;-4.449320;-15.441771;-0.857601;-13.126473;-5.014039;
1.929688;-8.212729;-7.290591;-10.987086;-4.563049;-10.129188;-1.045333;-8.661592;-4.089750;
1.933594;-0.365592;3.404308;0.487948;1.470388;0.722652;2.562282;1.525483;2.134680;
1.937500;3.846349;6.422791;4.214285;3.861091;4.159456;4.034185;3.896854;4.271121;
1.941406;6.597977;5.364497;5.412457;4.974659;5.198114;5.609464;3.872278;5.009387;
1.945313;2.311205;1.247061;2.070065;-2.087681;2.331992;-0.639036;2.111843;0.677813;
1.949219;1.423442;4.809477;3.702639;-2.437310;1.628537;-3.677367;4.853407;1.078625;
1.953125;2.990923;8.297783;5.391525;3.390899;0.961036;-0.721554;5.371082;3.547605;
1.957031;1.786516;3.895914;1.871490;4.029558;-1.346419;2.020700;0.432720;2.072429;
1.960938;5.402825;3.228135;4.078179;6.424578;1.341434;7.480724;1.553887;4.657808;
1.964844;5.710593;2.099219;4.605410;4.942003;2.562361;6.683097;2.295514;4.914500;
1.968750;5.701831;4.462550;6.474997;5.340965;5.862365;4.240560;3.658038;5.294399;
1.972656;7.773891;9.390974;8.650235;9.702596;7.542504;6.419456;6.369167;7.971867;
1.976563;5.329890;7.172626;2.622984;8.176050;-0.061152;7.202062;3.922971;6.711752;
1.980469;2.641497;3.831885;-0.782069;4.309419;-2.817360;5.280847;1.614972;4.046610;
1.984375;-2.625177;-0.891927;-0.923528;-4.151509;1.355779;-3.024730;-1.155796;-2.557285;
1.988281;-1.752695;1.140805;4.567128;-5.115679;7.803657;-5.009168;1.293792;-3.028636;
1.992188;3.449914;6.586996;7.669128;1.724882;8.138330;0.804295;4.940743;2.632029;
1.996094;-3.086295;-1.212757;-3.333559;-4.233249;-1.946653;-4.318273;-2.878501;-2.855925;
2.000000;-7.136040;-7.772277;-6.639200;-10.023207;-4.439392;-10.652045;-7.272852;-9.000684;
2.003906;-0.742451;-4.303516;1.206524;-4.279943;-0.092550;-5.480021;-2.438478;-5.136930;
2.007813;10.162679;5.144406;9.334988;9.224538;3.749691;9.971776;5.090904;6.484023;
2.011719;15.043683;10.637695;10.543039;17.662140;5.442863;21.517857;7.889064;14.198363;
2.015625;2.300394;0.758355;-4.253913;5.544528;-4.634169;11.566487;-2.327397;4.841274;
2.019531;-7.874573;-4.259813;-13.325924;-6.058373;-13.290761;-3.294992;-8.381721;-3.734991;
2.023438;-3.953398;2.845840;-6.230511;-4.137203;-8.925953;-6.190326;-2.945436;-0.841672;
2.027344;2.417739;7.009065;2.483408;0.281957;0.007298;-2.555974;1.937684;2.740061;
2.031250;1.649258;1.971653;2.125907;-1.818009;2.145534;-3.332637;-0.688330;-0.596655;
2.035156;-8.539691;-9.816648;-9.334867;-13.113840;-7.106548;-12.252254;-10.839258;-10.472719;
2.039063;-9.082423;-8.683323;-9.717420;-12.248330;-9.470226;-11.078938;-11.092251;-9.771913;
2.042969;-0.204309;1.515607;0.650988;-0.552747;-2.234519;-1.261933;-2.242521;-1.253894;
2.046875;2.062473;2.470582;2.621182;2.044247;-0.117983;1.129717;0.432738;-0.042292;
2.050781;0.637130;-0.928409;-0.317259;-0.150457;-2.453955;0.808090;-0.703890;-1.276429;
2.054688;-1.405775;-4.067824;-2.593788;-2.880246;-4.338813;-0.089327;-2.395989;-2.241694;
2.058594;4.445421;1.841307;5.684274;2.818833;3.355744;2.537000;3.241851;2.381685;
2.062500;9.380911;7.786683;11.508820;8.413336;9.041354;5.008370;8.060408;6.201870;
2.066406;-0.506515;-1.454196;-1.384355;-1.855374;-1.459877;-1.843213;-0.760771;-1.896227;
2.070313;-6.334283;-7.706274;-8.889775;-9.023263;-8.449461;-7.455212;-6.161165;-7.614179;
2.074219;0.392388;-1.456747;-0.525571;-3.567302;-2.212758;-4.880414;0.466765;-3.016275;
2.078125;14.016964;12.557718;16.938503;9.691896;12.556450;6.797218;14.326221;9.341178;
2.082031;20.010170;17.861116;25.909540;15.200929;20.956911;12.707301;20.098248;14.756866;
2.085938;5.162345;2.248072;8.706978;-0.253437;6.740009;-1.213711;4.856665;1.126804;
2.089844;-11.042342;-9.970763;-13.156723;-12.968041;-12.619093;-12.307790;-10.888349;-10.072943;
2.093750;-12.263334;-6.775193;-17.966843;-8.668217;-16.157352;-6.682559;-11.282752;-6.174071;
2.097656;2.596328;5.767687;-1.703386;8.504571;-0.782217;9.586934;2.420972;7.532066;
2.101563;13.741036;13.108004;12.258862;18.961170;11.483647;19.147329;12.794266;15.117906;
2.105469;2.542822;3.203654;0.647335;5.398262;2.019968;8.340775;4.274577;4.798218;
2.109375;-2.397195;0.635650;-3.878359;-1.949021;-2.195844;0.822320;0.924800;0.365705;
2.113281;5.978809;7.821744;7.798798;4.152704;5.344268;3.449206;8.387330;5.628021;
2.117188;5.513566;5.340382;9.287947;2.628785;5.720891;1.199761;7.449106;3.376909;
2.121094;-2.287539;-3.113178;0.480770;-3.625618;2.230534;-3.716575;-0.536542;-3.141198;
2.125000;-7.179799;-9.445793;-6.791460;-7.588954;-0.105860;-6.086562;-5.954905;-7.086232;
2.128906;4.348456;-0.596154;4.046732;3.774894;6.776805;4.001723;3.582582;2.071406;
2.132813;17.986490;11.460383;19.426121;16.250887;17.917505;14.399193;15.558210;12.812681;
2.136719;10.712530;6.680436;14.211258;6.141513;16.809288;6.119954;10.642464;6.514433;
2.140625;-1.401567;-0.624286;1.375259;-5.762403;6.637120;-3.258258;1.677653;-1.620454;
2.144531;0.174649;1.794966;-1.109343;0.449137;0.018419;3.489130;1.844371;2.983496;
2.148438;13.475111;13.010408;10.729332;17.549988;6.485401;18.132107;11.114649;15.664797;
2.152344;13.393604;13.220695;13.194682;15.109871;9.019841;12.787426;10.894855;13.382248;
2.156250;-6.084642;-4.336913;-5.179788;-10.046439;-4.807510;-11.834799;-5.052554;-6.740056;
2.160156;-13.324582;-10.758307;-14.133722;-17.204617;-12.394162;-18.433306;-11.284113;-13.313385;
2.164063;-6.070179;-4.305942;-8.605970;-5.476053;-7.825110;-6.987744;-5.724349;-5.194585;
2.167969;3.004964;2.994770;2.263955;5.122693;2.421530;3.747195;2.157104;2.974166;
2.171875;8.009084;5.394939;9.987181;7.885372;9.768243;6.487715;6.907019;5.244468;
2.175781;3.192044;-1.234653;4.007195;0.324959;4.402521;-1.024078;2.652295;-1.074606;
2.179688;1.456968;-0.719870;1.229505;-1.303911;0.481662;-3.887551;2.466228;-2.152418;
2.183594;2.816650;4.290167;4.235408;1.352805;2.645212;-1.547169;5.559858;0.624232;
2.187500;1.166040;3.274320;3.682117;-0.122486;4.582980;-0.711179;3.636777;-0.365844;
2.191406;-2.977083;-1.324390;-1.163419;-4.730487;3.216527;-1.344480;-1.172662;-3.590240;
2.195313;-13.087887;-10.789351;-12.860521;-15.112395;-6.318119;-7.567152;-9.669850;-11.240216;
2.199219;-15.685527;-12.391589;-15.620766;-15.104511;-10.452366;-9.068612;-11.515424;-12.514894;
2.203125;-9.797071;-6.718973;-8.566269;-6.855789;-5.219808;-5.999190;-6.954271;-7.748360;
2.207031;-4.958240;-3.691103;-3.022149;-4.333778;-0.109601;-5.753776;-3.293389;-4.835056;
2.210938;-1.840502;-2.042782;-0.450077;-4.276007;1.305585;-5.730080;-0.604206;-2.743013;
2.214844;-5.200413;-5.237700;-5.945690;-7.747144;-4.013386;-8.600806;-3.321429;-5.547184;
2.218750;-1.392997;-0.203271;-3.221865;-0.505994;-1.493912;-2.621424;0.801736;-1.285050;
2.222656;8.735707;10.162842;7.128108;12.745794;7.549496;10.222281;9.830601;9.300796;
2.226563;5.087047;5.601826;3.788770;7.048658;4.730218;8.237850;5.501729;6.722915;
2.230469;-5.342847;-4.757810;-4.133079;-7.850462;-2.092733;-5.400708;-3.699321;-4.570770;
2.234375;-10.229679;-9.616455;-6.350361;-14.842413;-3.797648;-15.313942;-7.230203;-12.179978;
2.238281;-2.029670;-2.493787;1.084757;-3.929295;1.168366;-6.791957;-1.133886;-4.834811;
2.242188;9.688928;7.729961;8.582053;12.157866;5.182768;11.090936;6.676802;9.689977;
2.246094;10.841383;6.756318;5.156867;14.113929;2.002989;16.974430;6.281766;13.314249;
2.250000;8.795189;4.473240;2.964793;11.310218;1.735538;13.724970;5.243964;10.242938;
2.253906;0.871822;0.642161;-1.897090;3.582413;0.158386;4.253977;0.190477;2.520956;
2.257813;-5.431376;-1.324582;-6.138028;-1.583061;-1.839278;-0.426670;-4.003057;-0.887787;
2.261719;-3.093165;0.653953;-4.041000;0.928665;-0.824211;2.788177;-1.868225;2.539694;
2.265625;-6.632558;-6.150988;-8.273318;-5.446221;-4.943707;-3.359615;-5.289643;-3.062873;
2.269531;-3.344636;-5.797613;-2.659035;-3.181801;0.464211;-3.897656;-2.235833;-3.698408;
2.273438;11.310456;6.919346;13.583215;14.444816;13.723907;11.515151;10.457488;9.204777;
2.277344;14.078730;11.816682;13.091874;18.749973;10.172640;18.487654;12.580524;14.515773;
2.281250;-3.997437;-0.540409;-7.846253;-3.183716;-10.404642;0.174792;-2.521437;-1.356483;
2.285156;-23.740904;-18.572184;-25.900949;-28.599739;-24.324825;-24.534410;-19.322004;-22.689873;
2.289063;-12.998086;-12.059167;-11.581936;-16.539549;-9.015685;-16.045652;-11.025945;-14.748749;
2.292969;9.578100;6.088548;11.365582;12.097633;11.430575;10.660072;6.798148;8.165466;
2.296875;7.766435;3.567612;7.257637;11.186258;6.535667;11.986291;3.938938;8.527497;
2.300781;-7.202366;-10.416446;-7.877589;-7.288647;-8.198520;-6.727313;-9.043252;-6.774968;
2.304688;-15.397561;-19.063009;-14.866837;-16.566874;-14.743256;-18.021765;-15.545574;-16.564428;
2.308594;-6.285312;-9.597859;-5.688502;-3.698557;-7.328429;-6.277358;-6.687994;-7.304024;
2.312500;6.482565;5.299825;5.941286;11.524171;2.342576;9.260021;5.487019;6.788168;
2.316406;5.444532;4.453848;4.034471;7.235434;1.580457;7.147246;4.301928;5.685624;
2.320313;3.478606;0.853608;3.037153;2.589535;1.500766;3.409346;1.234899;2.263192;
2.324219;5.062263;2.500444;5.974137;4.736947;4.063156;4.646674;2.309219;3.573285;
2.328125;7.669233;8.274082;9.065816;8.063711;4.904519;5.668736;5.477309;6.966288;
2.332031;2.813546;7.482965;3.080578;2.400335;-1.574409;-0.246574;1.902394;3.884407;
2.335938;-12.568318;-7.121114;-13.567950;-15.392726;-12.233282;-14.414351;-10.765802;-9.983088;
2.339844;-12.523706;-10.704414;-11.664933;-15.573491;-6.663718;-14.607533;-9.821579;-12.316195;
2.343750;-0.848956;-2.353152;1.007793;-0.894423;2.203303;-2.492042;-0.473447;-3.063548;
2.347656;1.207691;1.457912;0.154232;3.864031;-3.277050;3.123327;-0.330982;1.167617;
2.351563;-4.016943;-0.779409;-7.300707;-1.923139;-10.652764;-0.360961;-4.727894;-1.505862;
2.355469;-6.558600;-4.889795;-8.414884;-8.089158;-8.359580;-5.521802;-5.305982;-5.325106;
2.359375;6.381519;4.280526;7.806868;3.720635;8.310756;3.596328;6.861565;4.017951;
2.363281;15.102437;12.471651;16.387344;14.983286;15.838333;12.789346;13.210197;12.335765;
2.367188;-1.359849;1.809915;-3.562143;-0.780002;-3.030941;0.418097;-1.694768;0.831438;
2.371094;-19.178972;-8.997095;-22.330355;-21.910032;-20.501413;-17.687084;-15.114601;-12.938920;
2.375000;-17.888363;-9.248634;-18.970167;-23.942511;-16.176237;-21.884424;-13.489358;-14.009434;
2.378906;-1.724490;-0.831117;-0.339304;-5.305738;0.856375;-9.005796;-2.315637;-3.479492;
2.382813;7.482219;3.183671;9.364020;8.744740;7.622591;2.767107;3.035588;3.300638;
2.386719;4.159546;-0.390594;4.625754;5.886223;2.933264;4.173686;0.901869;1.870348;
2.390625;1.452427;0.187277;0.868840;1.962909;0.650106;4.096658;1.468210;2.420918;
2.394531;-2.891984;-2.161430;-4.469429;-1.898644;-4.433661;-0.257460;-2.294550;-0.338470;
2.398438;1.670035;0.029973;0.659529;4.009326;-1.624894;2.222914;-0.847939;1.868046;
2.402344;11.306830;6.757821;12.118813;13.059324;8.695033;10.658658;7.187200;8.905554;
2.406250;3.772133;-1.028414;3.912737;2.771280;2.577908;3.950794;1.246166;2.284193;
2.410156;-4.690799;-8.650600;-5.564874;-5.885295;-6.824057;-5.001340;-6.757441;-5.267569;
2.414063;-1.258127;-4.630085;-0.677565;-0.149333;-2.660021;-2.090507;-3.323025;-2.157454;
2.417969;5.629850;4.478156;7.896368;8.253062;6.810111;6.646432;4.984873;5.657564;
2.421875;4.192682;6.669745;5.190438;5.953249;6.098198;7.106424;5.388371;6.486185;
2.425781;-7.445765;-4.102855;-8.568822;-8.297801;-4.867405;-4.943603;-4.836962;-4.289719;
2.429688;-6.982642;-6.757433;-6.051357;-7.537336;-3.372066;-7.060788;-5.421158;-6.682373;
2.433594;3.161331;-0.366859;7.018239;5.121790;5.867793;1.851926;2.117525;0.377517;
2.437500;7.086255;3.202927;10.340796;9.260876;7.745751;6.714040;5.480209;4.650715;
2.441406;3.862961;3.202199;5.411298;3.774785;5.007421;3.497974;4.768376;3.622403;
2.445313;-5.570196;-3.757093;-4.527111;-7.781404;-1.158161;-6.049489;-1.929798;-4.242653;
2.449219;-6.839623;-5.927937;-4.977165;-6.895394;-1.572743;-5.763415;-4.463741;-5.781062;
2.453125;-2.793254;-4.133554;-1.526801;0.785848;-0.516398;0.485656;-3.627645;-2.055542;
2.457031;-5.489577;-6.572913;-6.934896;-2.789240;-7.320609;-1.477620;-6.840008;-3.470486;
2.460938;-11.068141;-9.702799;-13.769096;-11.832918;-14.177673;-9.369233;-10.964666;-8.049491;
2.464844;-17.448217;-15.362864;-18.768227;-20.342787;-16.234629;-19.950682;-16.262749;-15.226313;
2.468750;-12.876525;-11.105252;-11.172041;-14.552176;-7.623438;-17.652573;-11.910046;-12.277183;
2.472656;-2.293158;-0.993853;0.821968;-1.807172;1.518633;-4.529904;-2.335598;-2.115059;
2.476563;1.557073;0.097191;2.450113;1.944177;1.423555;3.072210;-0.097223;1.965831;
2.480469;6.903780;3.538924;4.761621;7.538410;3.728722;9.764419;3.647527;7.629986;
2.484375;9.820765;8.717551;6.711552;11.667081;6.555712;13.468340;7.074250;11.939600;
2.488281;10.415271;11.284693;9.612189;13.021181;8.828877;13.196083;8.365897;11.905539;
2.492188;7.773610;5.744448;8.535201;10.130348;6.174175;7.757945;4.332612;5.776137;
2.496094;-3.559265;-9.340788;-4.812840;-3.277020;-6.990049;-5.197080;-7.887542;-7.636220;
2.500000;-8.035753;-11.143090;-9.386730;-9.702964;-11.706590;-9.748625;-10.027455;-10.992067;
2.503906;-5.833728;-1.648170;-4.899499;-8.270176;-6.302968;-6.165683;-3.346934;-5.360562;
2.507813;-2.515337;5.441841;-1.801104;-4.282700;-0.769182;-2.169753;1.451808;0.186514;
2.511719;0.413654;6.775450;-1.946772;0.587165;0.936631;0.851396;2.052923;3.155133;
2.515625;-1.371648;1.725217;-6.750103;0.480488;-3.106526;2.980621;-2.098771;2.191687;
2.519531;7.323097;6.799109;2.745188;10.820597;3.039325;14.399651;3.988261;10.159060;
2.523438;19.256435;15.209223;18.992018;21.495676;15.352810;19.574354;14.841839;17.220612;
2.527344;14.621478;10.766110;18.024679;12.037024;14.662359;4.620914;13.680319;8.377992;
2.531250;-2.594814;-1.747955;-0.015963;-7.630926;-0.515826;-12.978941;1.491179;-6.565752;
2.535156;-18.930443;-14.180262;-20.589882;-22.190481;-17.202127;-20.039391;-12.501734;-16.826899;
2.539063;-13.005322;-8.656720;-14.725813;-13.039280;-10.889026;-9.820436;-7.969006;-10.014759;
2.542969;2.322067;3.547067;5.009553;2.473137;6.377397;0.701465;5.179463;0.663711;
2.546875;3.243315;1.537854;7.014842;0.803551;7.898374;-2.060620;4.744135;-1.589966;
2.550781;1.619607;-1.465185;2.231567;-0.844510;4.066023;-1.458864;1.463300;-3.050123;
2.554688;2.473189;-0.083576;1.592291;1.022698;4.385433;2.180198;1.965631;-0.955067;
2.558594;7.552861;6.887321;10.030520;5.897369;10.593207;5.251153;7.652282;3.891069;
2.562500;9.845681;9.716273;14.472608;8.876108;11.912753;5.566393;9.701324;5.789040;
2.566406;-2.819328;-2.709611;-2.211020;-1.531187;-3.132892;-1.704819;-2.495309;-3.435401;
2.570313;-11.591540;-8.675130;-14.664711;-8.251917;-13.203516;-4.061750;-9.697825;-7.639537;
2.574219;-5.693467;-1.599614;-6.865209;-4.112824;-6.005310;-0.786336;-3.193673;-2.432643;
2.578125;4.917552;6.499143;7.728675;3.441939;6.276327;2.735977;5.991273;3.526809;
2.582031;2.850340;2.287419;5.798928;1.700147;4.651107;0.885806;2.871937;0.662856;
2.585938;-10.249348;-12.770516;-10.564634;-9.904491;-8.517438;-6.516623;-10.182544;-9.753950;
2.589844;-1.854963;-7.809980;-2.433099;-0.939318;-1.872676;1.950989;-3.487988;-2.929303;
2.593750;21.233280;13.702668;23.214535;22.080647;20.128174;21.151047;18.115173;16.772717;
2.597656;28.596367;24.348177;31.268152;30.305134;29.340918;27.713001;26.546534;25.644188;
2.601563;16.486891;16.457146;16.355606;19.350105;18.385702;16.342899;15.579560;17.715435;
2.605469;0.189476;0.533640;-3.251962;1.246172;0.689935;0.290529;-0.534184;2.998202;
2.609375;1.041564;1.184109;-0.582554;-0.250370;0.601333;0.667446;1.015370;2.012230;
2.613281;3.996701;7.269094;6.550926;1.880610;5.969948;1.808302;6.531094;3.717142;
2.617188;-5.112816;0.810339;-2.236354;-7.511322;-1.603807;-8.727737;-0.976711;-4.786785;
2.621094;-8.170510;-4.952178;-8.124946;-9.827408;-9.244284;-10.196574;-6.869184;-8.302498;
2.625000;-1.362033;-3.935110;-3.489137;-2.546363;-7.610058;-0.954875;-4.262411;-3.509739;
2.628906;12.811934;7.476909;12.444021;12.491784;7.598618;12.916463;8.477286;9.123154;
2.632813;17.784956;13.086808;20.064577;19.142080;17.756666;18.036562;15.232734;15.319442;
2.636719;1.750549;-2.355087;3.245179;3.439467;4.652296;4.060778;1.180513;1.589813;
2.640625;-11.475546;-14.491815;-11.985223;-9.938265;-10.091246;-8.717322;-12.128908;-11.101741;
2.644531;-10.000207;-9.429266;-11.573010;-8.793768;-10.275541;-8.520648;-10.183968;-9.044597;
2.648438;0.558461;5.101456;-0.612940;1.460744;-0.026470;0.355308;1.753605;2.411826;
2.652344;5.456354;8.781932;4.137909;7.018466;2.967987;5.987798;5.920442;7.293342;
2.656250;-0.853985;-3.053446;-4.227878;1.690244;-6.790825;3.532090;-2.785324;1.058566;
2.660156;-0.520718;-3.367109;-2.722427;1.882918;-5.341014;4.710361;-1.932963;1.745709;
2.664063;2.467111;5.437203;4.772520;1.664932;5.279488;3.455856;5.826614;5.223270;
2.667969;0.893188;7.038263;3.215825;-2.161079;4.888811;-2.528446;5.080226;3.484271;
2.671875;-3.870263;-1.036926;-8.211479;-4.570999;-9.798095;-6.421406;-5.563900;-1.542073;
2.675781;-16.048510;-14.854794;-25.316420;-14.297244;-26.484045;-12.350761;-19.541899;-11.601759;
2.679688;-20.167665;-14.045924;-25.885275;-17.787899;-23.226017;-13.155277;-18.209166;-13.381980;
2.683594;-10.292358;-2.387081;-10.599808;-8.361020;-7.134423;-7.414355;-5.770524;-5.173681;
2.687500;3.267824;3.687652;4.548068;4.268794;4.520699;1.061713;3.026645;3.349714;
2.691406;7.457294;1.857076;9.473448;7.704955;7.710817;6.072352;4.184515;5.082719;
2.695313;-8.187732;-8.918028;-5.691144;-10.707319;-3.153275;-6.968541;-6.611931;-7.687551;
2.699219;-18.564003;-11.458258;-16.446959;-23.790560;-12.338661;-20.281420;-12.905177;-16.011652;
2.703125;-9.549274;-3.728352;-9.491515;-12.874497;-9.474367;-12.595633;-7.327608;-8.110619;
2.707031;-0.669650;-1.495923;-3.746986;0.495771;-6.124133;2.149670;-3.479192;0.389170;
2.710938;-0.484340;-3.288163;-3.422728;0.989021;-4.598819;2.654576;-3.308177;-0.064336;
2.714844;0.014495;-1.184755;1.573444;-4.312796;2.316854;-7.885883;0.797413;-2.982749;
2.718750;14.343540;13.930676;21.627926;7.108824;20.697620;-1.471388;17.294441;7.879422;
2.722656;22.270092;21.569998;30.337585;19.544369;27.045809;13.631131;25.236530;17.340900;
2.726563;5.193659;3.487850;7.553344;6.953122;5.258507;7.964841;6.591658;4.597886;
2.730469;-12.476368;-14.439640;-14.575892;-11.259837;-15.833270;-10.382145;-13.746840;-12.479491;
2.734375;-19.392868;-18.749962;-21.413559;-21.005352;-21.212862;-23.183868;-20.431866;-20.116978;
2.738281;-16.935581;-12.001385;-18.530596;-16.622255;-17.513414;-17.016441;-15.889503;-14.666831;
2.742188;-13.641839;-7.585199;-17.323317;-7.486587;-17.061481;-3.991846;-12.902425;-7.030132;
2.746094;-18.309406;-14.611926;-23.151758;-11.410862;-21.537556;-6.274115;-18.149343;-10.973961;
2.750000;-11.760439;-9.669584;-12.544356;-9.234053;-10.059804;-7.599431;-10.527797;-8.466474;
2.753906;5.537255;4.634855;9.851389;3.695114;10.243772;-0.121879;6.764475;2.816763;
2.757813;16.747614;9.882972;22.636068;12.685255;19.117332;5.257876;15.046132;8.635198;
2.761719;16.817102;7.947402;21.038950;12.843886;15.289150;6.155416;13.263981;8.114319;
2.765625;8.275765;4.736682;9.416000;6.074046;5.794175;6.068036;7.454068;6.005997;
2.769531;8.271429;10.850185;8.015028;10.704899;6.135365;15.777619;10.040383;12.530269;
2.773438;7.897638;11.109371;6.645601;13.972845;6.292177;19.063717;8.861596;12.956443;
2.777344;-7.638365;-6.633670;-10.842829;-3.700488;-7.996899;-0.012440;-7.789115;-5.605810;
2.781250;-18.573458;-18.309454;-21.801119;-19.678219;-17.520288;-18.008921;-17.575729;-19.741100;
2.785156;-10.779174;-10.279175;-10.848531;-16.397562;-6.580061;-16.833839;-6.931283;-13.983740;
2.789063;10.511247;11.230683;15.339398;3.440056;17.395861;-0.135116;15.066227;5.200796;
2.792969;20.649279;21.397638;25.384649;16.719673;23.808104;12.274223;22.109167;15.858027;
2.796875;10.069032;10.949828;7.098134;13.253912;4.815715;12.745251;7.741106;11.009148;
2.800781;-0.198483;0.501857;-8.457617;8.999076;-8.142844;10.887884;-3.454170;5.124821;
2.804688;-6.132719;-5.813367;-10.792898;-0.235001;-7.090087;0.053154;-6.348304;-3.103951;
2.808594;-6.511976;-4.013865;-3.676861;-9.314324;-0.066720;-12.237950;-2.951332;-8.123088;
2.812500;-4.263864;1.719888;1.915895;-11.097792;4.237982;-13.953641;1.246207;-6.181469;
2.816406;-9.624461;-2.556628;-5.841569;-15.116143;-2.579270;-13.602861;-3.613410;-8.020659;
2.820313;-11.396397;-5.089694;-10.817046;-14.078117;-8.735982;-11.652039;-6.976255;-8.272798;
2.824219;-3.518828;0.327365;-4.876626;-4.824931;-5.472925;-5.231990;-2.987186;-2.169699;
2.828125;11.230906;10.944968;8.634762;12.211307;5.906987;10.121511;6.749945;10.646428;
2.832031;18.395123;15.368937;13.904521;23.833536;10.031545;23.307043;11.269543;18.627604;
2.835938;6.199903;3.255076;0.760115;12.451706;-0.950557;15.444059;1.446999;8.109766;
2.839844;-0.430044;-2.045924;-1.027369;1.792203;0.171218;4.374375;-1.150233;-0.550462;
2.843750;7.695227;7.748627;12.844459;5.646117;15.612001;5.936057;9.379499;4.967707;
2.847656;14.212476;16.925020;18.175457;11.794692;19.839363;11.853967;16.594658;13.134124;
2.851563;10.595864;14.831271;8.914845;11.279282;7.430162;11.487936;12.696795;12.983113;
2.855469;3.425608;5.062829;-0.996995;5.053741;-3.129862;4.951890;4.953731;5.957087;
2.859375;12.912930;10.279199;11.242041;13.566892;8.700632;10.788324;12.337000;11.104914;
2.863281;23.507738;19.062302;23.745392;25.212160;19.910460;21.582048;20.461687;19.107950;
2.867188;12.062680;10.287571;11.732921;14.509293;9.409326;15.030071;10.862557;10.242149;
2.871094;-4.265649;-1.150752;-2.622121;-4.888126;-0.976168;-1.288199;0.337709;-3.149535;
2.875000;-6.264576;-2.685691;-2.800339;-10.859434;1.131413;-7.731081;0.583945;-5.371125;
2.878906;9.245983;8.265193;12.250467;4.768291;12.108316;3.930050;11.416977;6.768454;
2.882813;14.126353;9.518558;16.494255;11.515912;12.586733;7.078729;12.352653;8.698841;
2.886719;-5.586358;-10.682701;-5.483981;-5.733571;-5.745749;-8.199728;-6.803557;-9.193426;
2.890625;-16.128448;-20.038921;-20.018969;-10.750581;-16.975395;-8.100326;-17.561615;-14.538775;
2.894531;-7.412374;-8.516099;-13.524068;0.729021;-11.777867;7.416668;-9.903880;-1.771367;
2.898438;5.412996;9.130914;0.622921;10.877370;0.015190;16.280600;3.767652;11.531910;
2.902344;5.811289;11.764215;2.887404;7.728828;2.197198;9.642802;5.534659;9.980267;
2.906250;-8.739941;-6.537443;-9.416968;-10.832535;-7.975070;-8.921723;-8.014023;-7.980058;
2.910156;-14.437445;-15.783885;-9.629148;-20.754236;-8.023209;-20.437426;-12.163711;-17.999157;
2.914063;-4.294134;-5.077155;4.199036;-12.394812;4.089183;-15.503429;-1.219445;-9.419218;
2.917969;12.440771;12.617880;18.035883;7.805363;16.062813;4.969935;12.643053;10.091420;
2.921875;15.147577;14.614873;14.079680;16.535465;11.893474;17.509886;11.483891;17.232744;
2.925781;-0.208983;-2.474248;-5.749269;3.146907;-6.397151;6.372139;-4.640728;3.443596;
2.929688;4.364591;0.281737;1.113235;7.374304;-1.274064;5.464989;0.092091;4.538007;
2.933594;24.979683;19.429312;25.270628;30.372202;20.086651;23.993666;19.681211;22.994991;
2.937500;25.303324;19.142241;24.587593;34.478100;20.131680;33.745102;18.997452;26.448164;
2.941406;2.762908;-2.123947;1.188320;9.055525;-0.054535;15.388915;-1.530922;5.567903;
2.945313;-22.654165;-24.447353;-21.502682;-27.773357;-18.939955;-23.318014;-21.910006;-23.632820;
2.949219;-24.461445;-22.495491;-19.139854;-35.849606;-16.146553;-39.374317;-20.847776;-29.455469;
2.953125;-11.983438;-8.097811;-5.314515;-19.436975;-3.430537;-24.935698;-8.524485;-15.963496;
2.957031;-8.299528;-6.313249;-5.284685;-11.193229;-2.704277;-11.578640;-6.520778;-9.164211;
2.960938;-7.779319;-10.166967;-9.449319;-8.983588;-7.236820;-7.578887;-9.511845;-8.309494;
2.964844;-1.020886;-7.329118;-3.962589;-0.328100;-4.207177;0.088401;-6.170115;-2.158507;
2.968750;16.114187;9.094597;15.055779;21.138845;10.550792;22.319729;8.777686;16.213858;
2.972656;17.022524;13.203076;16.786909;23.397417;11.076706;26.708668;10.593425;19.336205;
2.976563;-10.216661;-9.591547;-12.373301;-9.624797;-14.050912;-5.702871;-12.541006;-7.035344;
2.980469;-20.485065;-17.784801;-23.970156;-23.787746;-23.481697;-23.346090;-20.595617;-17.843765;
2.984375;-3.689398;-1.461961;-6.078313;-4.026247;-5.443039;-5.868612;-4.036343;-0.286525;
2.988281;8.381374;11.222782;8.148284;12.141271;9.424788;12.378125;8.140550;13.479105;
2.992188;0.114490;3.663512;-0.604469;3.575081;0.988761;6.978101;-0.121756;5.076571;
2.996094;-13.700170;-13.612006;-17.018539;-14.912801;-15.332118;-11.398911;-15.228945;-11.961421;
3.000000;-7.762002;-11.529025;-9.984199;-10.819305;-9.488754;-10.876647;-10.667447;-9.162772;
3.003906;4.163528;1.188764;4.873064;5.256227;4.784221;5.634593;1.953628;4.758969;
3.007813;4.708788;4.118546;5.676485;9.291656;5.570089;12.171166;3.683700;7.936216;
3.011719;-4.110450;-4.231867;-4.037230;-2.731136;-4.157756;-2.766062;-4.252151;-3.381070;
3.015625;-18.862877;-18.543116;-18.659611;-23.962267;-16.173515;-26.849281;-16.654682;-21.044264;
3.019531;-16.036535;-13.377332;-13.500095;-23.018280;-9.561321;-26.083202;-11.968770;-18.165205;
3.023438;2.506704;6.432770;6.653597;-2.531536;8.653543;-4.705950;6.004656;1.433198;
3.027344;11.702323;13.139804;13.088394;9.136324;12.405409;9.108889;12.342726;11.198301;
3.031250;12.094281;9.024150;9.022846;13.313672;6.372896;14.672439;8.771082;11.359653;
3.035156;9.889269;3.615396;6.099143;13.180210;3.513938;14.000400;5.200752;8.222857;
3.039063;9.409961;3.896674;10.223025;10.284054;7.409419;6.698349;7.036097;5.465396;
3.042969;2.951007;0.396911;7.419477;-1.551984;4.834823;-9.626379;3.817057;-3.224057;
3.046875;-11.370066;-12.204090;-8.594529;-18.603891;-7.098515;-25.321159;-8.784011;-16.942369;
3.050781;-19.450272;-18.956188;-19.544643;-22.616652;-12.791142;-24.535360;-16.172384;-21.237368;
3.054688;-19.232422;-17.529095;-19.429625;-18.013096;-10.897060;-16.036484;-14.941397;-17.566288;
3.058594;-4.072638;-3.155015;-2.140566;-2.455613;1.549000;-1.344594;-0.948267;-3.355899;
3.062500;13.136699;11.750860;15.049596;14.434816;13.429136;13.763550;12.947931;12.086655;
3.066406;13.323015;9.447856;12.320783;15.369646;11.402875;16.977846;10.910139;13.439046;
3.070313;12.029002;5.709348;9.587970;16.011320;9.523357;17.646206;7.834594;12.106899;
3.074219;7.613527;1.460536;5.972700;10.424037;5.491910;9.792503;3.648922;5.563282;
3.078125;-3.821008;-4.710773;-2.847251;-6.559490;-1.494430;-5.948489;-3.213955;-6.542783;
3.082031;-11.274385;-7.578549;-9.627270;-16.220854;-5.803126;-11.580647;-6.899073;-11.812609;
3.085938;-16.018621;-14.025816;-19.708559;-16.487131;-16.294964;-10.018324;-14.120961;-13.603075;
3.089844;-13.861680;-15.996018;-20.999685;-10.626672;-21.837509;-10.357739;-17.226603;-13.285346;
3.093750;-6.083243;-10.937366;-8.827816;-6.337658;-11.852703;-15.086521;-10.578959;-11.936845;
3.097656;5.683511;0.141761;8.596157;2.462504;6.932961;-8.058284;3.241639;-3.182079;
3.101563;12.414182;8.436727;16.504700;12.344280;16.173212;7.573555;11.503313;6.854678;
3.105469;0.860745;-1.057067;4.189666;0.633040;4.948031;1.093091;1.490324;-2.088193;
3.109375;-3.794565;-4.180758;0.569946;-8.787358;-0.585378;-10.841364;-2.525836;-9.015859;
3.113281;4.960885;5.679717;8.726199;0.551601;4.787766;-4.199096;5.271778;-0.048982;
3.117188;5.726213;6.528843;5.143922;8.743960;1.884979;7.857033;4.665082;6.380431;
3.121094;-1.363091;-1.622268;-5.094862;6.594180;-7.030486;9.027210;-3.050382;2.548968;
3.125000;-10.856834;-11.066716;-13.516070;-6.501249;-14.722942;-4.274579;-10.408686;-8.225533;
3.128906;-11.726476;-7.521158;-11.255508;-12.573319;-11.856325;-12.289773;-7.500370;-9.624655;
3.132813;-8.833014;1.523668;-7.935165;-10.979580;-5.958334;-10.226461;-1.777537;-3.949604;
3.136719;-11.634966;-0.480307;-12.428535;-13.051796;-7.223282;-7.977293;-4.163951;-4.188970;
3.140625;-9.632412;-4.615042;-9.579127;-8.876445;-6.272171;-3.427004;-5.122223;-4.020711;
3.144531;-7.553943;-9.241446;-5.290437;-5.994681;-6.062006;-5.727839;-6.586222;-6.387919;
3.148438;-0.758260;-3.333994;1.696718;0.243049;-1.667563;-3.290164;-1.953813;-1.986190;
3.152344;14.826324;14.448048;13.590944;17.430494;9.269289;17.053459;11.660209;15.558765;
3.156250;17.094938;16.562641;12.156054;20.827442;8.916540;26.027884;12.959848;20.125784;
3.160156;4.535625;4.753839;3.437126;5.624451;1.012583;9.339684;3.307972;5.767439;
3.164063;-7.233557;-1.838182;-1.581162;-10.906870;-2.363708;-11.607494;-1.930328;-7.913795;
3.167969;-3.518531;4.713151;2.493555;-9.354793;3.245946;-12.224315;4.216295;-4.641222;
3.171875;8.293682;10.502634;10.655419;3.106755;10.128925;-1.694254;11.190743;4.487016;
3.175781;5.466198;1.192499;6.521054;0.931752;5.030263;-2.996054;4.793149;0.117656;
3.179688;-2.865045;-2.857896;-2.309847;-3.040562;-3.219777;-2.884887;-2.166029;-3.174848;
3.183594;-3.265070;4.293962;-7.126933;3.340650;-6.679040;6.718360;-1.968110;3.440923;
3.187500;3.273068;9.821811;-4.067978;11.243617;-3.392202;13.718428;2.175229;10.428999;
3.191406;5.597372;6.945618;0.797389;10.251412;0.904538;10.905629;3.801202;9.177391;
3.195313;-2.457280;-2.850017;-3.726720;0.145511;-2.734123;3.070523;-2.106850;0.636839;
3.199219;4.348171;4.272597;5.608596;7.512880;4.448931;10.444006;4.767334;6.945858;
3.203125;21.098076;20.070848;24.875956;22.785435;20.241764;21.805515;20.219955;20.241810;
3.207031;16.886522;15.746135;20.418625;15.354159;17.714338;14.704448;17.035490;15.202118;
3.210938;-1.826286;-0.293961;-1.639841;-2.569549;0.199394;1.526249;0.044511;0.753313;
3.214844;-13.053284;-10.604965;-14.365881;-12.146832;-10.681327;-6.104067;-10.986543;-8.095380;
3.218750;-3.552288;-4.044004;-1.402903;-3.815640;-0.854288;-4.736034;-3.501462;-3.558544;
3.222656;4.404558;2.038765;8.729686;3.398038;7.766085;-4.598841;3.011902;-0.067425;
3.226563;-10.695802;-9.983828;-9.390031;-10.737974;-4.245267;-13.999943;-9.292862;-11.349378;
3.230469;-20.737755;-15.382685;-22.655455;-19.265341;-13.145427;-14.632682;-16.268000;-15.528845;
3.234375;-10.337183;-5.226752;-13.155566;-8.659056;-7.802023;-3.732839;-7.560560;-5.028412;
3.238281;7.920696;9.116156;6.607962;9.141798;4.696177;9.152897;6.474175;8.860277;
3.242188;16.074413;13.972136;16.937267;17.294804;12.131088;15.617433;12.617995;14.146319;
3.246094;8.578760;4.010653;10.417195;8.588499;7.336093;10.567136;6.078905;6.814303;
3.250000;5.318296;0.712629;8.217699;3.671634;5.629996;6.076275;4.080125;3.414918;
3.253906;4.011009;3.050651;6.706614;1.355903;4.523892;-0.398915;4.020874;1.785621;
3.257813;-2.080849;1.639069;-1.407800;-3.791681;-0.796529;-7.815813;-0.444717;-2.596248;
3.261719;-4.646530;1.172618;-7.217219;-3.413378;-3.359986;-4.288097;-2.636017;-1.335175;
3.265625;-4.898234;-0.150729;-10.332978;-3.318974;-5.329247;1.128717;-3.853148;1.146977;
3.269531;3.036977;5.599687;0.957017;2.423327;1.960838;4.959378;2.984453;6.028944;
3.273438;8.968574;9.087296;12.471133;7.889801;9.999424;4.312450;8.419997;6.806783;
3.277344;-0.359517;-0.628372;1.709026;0.544643;1.661256;-3.250123;-0.900820;-2.142128;
3.281250;-11.987328;-10.671903;-14.690708;-10.599447;-11.507942;-10.125956;-12.174991;-10.234220;
3.285156;-15.724283;-16.441099;-18.981281;-17.409559;-16.317013;-14.534405;-16.151192;-14.510440;
3.289063;-4.182864;-9.197984;-4.643155;-5.301842;-6.340822;-5.711489;-6.995037;-6.607819;
3.292969;9.889389;4.667882;10.319531;14.150719;7.559873;11.009349;6.247140;7.699788;
3.296875;7.847502;6.070469;8.302658;12.175878;10.786559;12.748233;8.402015;8.692924;
3.300781;-3.870791;-2.617647;-2.813409;-4.986887;2.653274;-1.271918;0.267484;-2.529587;
3.304688;-14.304579;-12.539274;-17.674530;-15.880183;-14.506177;-13.350167;-13.471998;-12.788180;
3.308594;-3.736793;-4.502792;-12.021606;1.214752;-13.565671;1.883405;-10.015961;-1.669153;
3.312500;18.103846;12.718620;14.264702;25.110598;9.920022;27.371407;9.921288;17.978329;
3.316406;13.430288;6.816750;17.096970;12.806353;14.338380;16.943806;10.161264;10.249348;
3.320313;-8.816530;-10.082844;-4.579072;-16.934055;-5.018747;-18.394407;-7.582577;-13.163679;
3.324219;-16.908331;-13.734657;-15.863363;-25.800051;-14.835780;-33.434322;-14.859180;-21.003710;
3.328125;-4.415119;-2.149234;-3.336188;-8.941379;-2.710332;-13.475022;-3.285983;-7.088847;
3.332031;1.233297;2.139843;2.370560;1.005507;2.021699;4.960099;1.800340;2.069147;
3.335938;-11.045588;-11.527675;-14.621060;-10.149259;-14.591951;-2.616339;-11.988924;-7.431947;
3.339844;-4.507724;-9.396235;-11.946190;-1.768154;-14.821309;-0.535456;-10.306595;-3.395048;
3.343750;15.273487;7.587120;10.531529;18.364733;4.335780;13.454842;7.551528;11.687597;
3.347656;10.197006;7.604739;11.551415;8.934459;7.720959;5.810055;8.758421;6.175610;
3.351563;-10.347861;-6.333415;-7.663095;-13.998722;-6.363262;-13.609218;-5.674401;-10.757808;
3.355469;-16.140387;-13.703029;-17.707979;-17.047007;-13.136373;-16.095001;-13.098148;-14.288438;
3.359375;0.738249;-1.881316;-1.390374;3.904403;1.565298;2.893373;-0.629474;0.871532;
3.363281;11.503966;8.156170;12.373167;15.256703;12.116696;13.026122;9.621647;9.645212;
3.367188;1.056490;0.325157;1.190201;2.558264;0.044293;1.096460;0.742696;0.358197;
3.371094;-8.467735;-7.512172;-9.768490;-8.557975;-10.760059;-9.262852;-8.097100;-7.485502;
3.375000;-4.107455;-5.253961;-2.841691;-6.409698;-3.521598;-6.451968;-3.454364;-4.815771;
3.378906;15.779596;11.047281;20.129749;12.628397;16.469719;11.373756;14.628023;11.431334;
3.382813;28.605114;22.618561;31.314640;27.809166;23.789505;24.921394;24.389242;23.632807;
3.386719;14.908537;10.711370;13.662969;16.824873;8.502133;14.925302;10.919135;12.970785;
3.390625;-3.568243;-4.013124;-5.993771;0.241552;-5.859832;-0.311639;-4.144454;-2.209852;
3.394531;-12.781211;-10.964493;-15.814104;-9.752865;-13.757151;-9.745975;-11.169674;-10.268265;
3.398438;-8.174683;-7.551031;-11.976846;-6.310984;-12.286044;-6.926954;-8.260472;-7.245080;
3.402344;6.186301;3.976305;4.704681;8.611489;3.441214;9.597434;4.636039;5.417402;
3.406250;14.418703;10.736354;17.948778;13.635860;19.671469;18.437717;15.855521;12.771704;
3.410156;15.473823;14.236050;23.614414;8.769605;26.155123;10.647736;21.330786;12.048831;
3.414063;5.341567;7.724585;13.726685;-3.343719;14.960276;-8.525931;13.058423;0.905824;
3.417969;-7.827486;-5.913777;-3.995353;-13.192255;-3.600638;-21.543226;-3.202359;-11.781785;
3.421875;-11.448941;-13.098722;-13.392898;-11.017372;-12.531703;-16.926970;-12.359661;-13.088662;
3.425781;-8.111836;-12.118410;-12.530355;-2.769068;-9.747703;-2.677189;-10.876065;-5.653844;
3.429688;6.770033;3.370450;5.879811;13.568529;7.319955;14.930032;5.770828;9.970686;
3.433594;16.830732;16.398159;21.574198;17.481747;20.422245;15.289401;18.879900;16.076366;
3.437500;9.773089;11.708517;17.991814;0.191272;16.241451;-4.309361;14.091334;4.189398;
3.441406;-3.126784;-0.988920;4.274937;-15.489009;2.521578;-19.082291;1.222703;-9.683344;
3.445313;-21.692066;-16.826010;-21.123417;-26.934624;-19.875353;-24.768656;-16.875031;-21.222879;
3.449219;-28.853806;-18.034479;-35.644531;-23.841604;-31.734974;-17.632702;-24.065327;-19.686224;
3.453125;-14.269702;-3.311815;-23.159079;-3.993424;-20.785589;1.000360;-12.715854;-4.005167;
3.457031;4.081645;8.460746;-2.945413;13.212744;-2.583262;18.734838;2.615518;10.836287;
3.460938;14.762491;14.224143;11.267205;20.554686;10.978632;28.230227;13.835361;18.812948;
3.464844;13.814864;10.953798;14.663855;13.751244;13.872356;17.917973;14.570987;13.188736;
3.468750;10.967339;6.488241;16.443100;5.084011;14.168283;-1.686723;11.131720;2.821851;
3.472656;7.686160;4.158093;13.978334;1.491601;12.562370;-10.701734;7.128802;-2.097544;
3.476563;-1.986617;-1.698004;-0.762145;-4.222574;1.312660;-8.132261;-0.928475;-4.104191;
3.480469;-8.099592;-3.660074;-10.074144;-7.271386;-6.954615;-3.214895;-4.449493;-3.348547;
3.484375;-6.402105;-1.813250;-3.844961;-7.424847;-1.176369;-5.041471;-0.636887;-3.617414;
3.488281;9.059269;7.720645;18.463312;4.862382;18.553358;1.672797;12.904247;3.866470;
3.492188;23.869495;15.717250;32.531570;19.596195;27.957592;13.627539;21.683294;13.831564;
3.496094;10.905169;4.490371;10.832877;8.127141;5.975916;4.208531;6.035334;5.673200;
3.500000;-10.531062;-5.988501;-17.091379;-10.098253;-18.195707;-10.015013;-11.975605;-5.566010;
3.503906;-14.428200;-3.235914;-20.503508;-10.879422;-19.102566;-7.090237;-12.315851;-4.384501;
3.507813;-2.212931;4.177423;-4.709387;2.407382;-4.825984;7.667899;-1.557129;4.618690;
3.511719;3.320946;3.576150;1.901882;9.796164;0.348326;16.363903;1.061892;7.592018;
3.515625;-8.790552;-7.983384;-11.502902;-0.815075;-9.579231;9.190829;-9.468025;-1.868122;
3.519531;-6.891513;-3.420135;-4.936740;-3.358383;-1.110990;3.074443;-3.121117;-1.970215;
3.523438;8.124146;10.795492;18.980438;0.745839;20.422911;-4.073432;15.021863;3.653750;
3.527344;4.257595;6.552800;15.102944;-9.504273;15.651567;-19.271858;11.600407;-3.809027;
3.531250;-12.948092;-8.479646;-11.349858;-22.243198;-9.816147;-26.808870;-7.440715;-14.830482;
3.535156;-18.851515;-17.004015;-22.210226;-22.194675;-20.851397;-20.966999;-16.321730;-17.313564;
3.539063;-1.533754;-6.058058;-1.620431;0.168106;-1.992626;0.559156;-2.598575;-3.175213;
3.542969;13.678902;8.087624;12.849369;23.574144;12.653589;22.785341;9.701418;13.186634;
3.546875;8.574946;7.064517;0.400022;23.358875;1.178345;26.698254;3.629636;14.860461;
3.550781;1.008425;3.013301;-7.169318;10.058101;-7.194394;15.908371;-1.601620;8.659061;
3.554688;-5.167888;-3.091953;-3.124472;-8.622571;-2.157628;-6.471289;-2.399739;-4.962245;
3.558594;-4.432785;-5.170612;4.486217;-13.370287;5.453214;-18.141483;-0.478174;-12.437212;
3.562500;2.529916;-1.071903;5.695047;-0.188347;3.977279;-7.060734;0.603190;-5.204914;
3.566406;0.354346;-3.058854;-4.872649;3.041953;-6.541621;1.654156;-5.540492;-0.869642;
3.570313;-4.042905;-4.068969;-6.305293;-4.307060;-5.998292;-1.384089;-6.510159;-2.641868;
3.574219;-7.135018;-4.054537;-2.875504;-11.615724;-0.675222;-8.516646;-4.634907;-7.056411;
3.578125;-6.720806;-2.391807;-4.667202;-8.641105;-2.227557;-6.410690;-4.787335;-5.844285;
3.582031;-2.968327;0.504302;-6.352432;-0.508989;-5.580994;1.801280;-4.453257;0.208559;
3.585938;-5.338916;-5.261580;-9.473142;-3.838556;-9.881509;-0.398469;-7.758464;-2.161872;
3.589844;-1.625988;-4.491969;-3.802317;-0.791696;-6.095625;0.617828;-4.435051;-1.058323;
3.593750;8.450900;5.417065;7.306911;11.017727;5.073000;8.743670;5.143934;6.681756;
3.597656;9.710882;8.085096;10.031816;11.544735;10.889568;8.229444;7.621564;7.262629;
3.601563;0.528423;-1.637846;2.163670;0.161038;3.773464;-1.121256;-0.897666;-1.721693;
3.605469;-7.059016;-13.632896;-7.042465;-8.284832;-7.931221;-5.971354;-10.703870;-9.491133;
3.609375;4.740640;-4.321631;3.012606;5.211767;-1.448539;7.471105;-1.952950;1.763500;
3.613281;14.459446;9.437984;12.223879;16.876574;7.788480;17.516123;8.363914;13.566521;
3.617188;-0.121826;1.026633;-4.157610;2.907621;-4.531396;6.286145;-3.086776;3.904574;
3.621094;-16.364025;-12.284189;-22.734030;-12.919514;-20.523720;-5.958702;-17.984619;-9.081471;
3.625000;-17.563591;-14.295105;-23.514671;-16.449135;-20.821470;-10.556259;-18.763323;-11.663718;
3.628906;-3.408533;-2.103818;-4.799284;-5.662429;-3.809619;-6.446981;-4.404965;-2.173213;
3.632813;8.473657;7.589987;11.129490;5.785985;9.920784;-0.265315;7.027200;6.372987;
3.636719;5.264563;1.920956;7.466906;3.545967;6.192549;-0.132960;3.654244;3.332129;
3.640625;2.421685;-2.721908;2.348693;1.779626;1.316067;2.939012;0.242454;1.540853;
3.644531;3.717656;-3.379532;2.686515;2.732351;2.082852;4.238569;-0.048286;1.541021;
3.648438;7.703180;-0.692265;8.580808;6.177480;8.253769;3.013487;2.674090;2.578115;
3.652344;5.032003;-0.363476;6.581228;5.857618;8.431970;2.460686;1.922837;2.481549;
3.656250;-12.782206;-11.405975;-16.445236;-8.806638;-10.915462;-4.131813;-12.182015;-5.969620;
3.660156;-19.785835;-14.470681;-26.265018;-15.493116;-23.306915;-7.638439;-18.722248;-9.165767;
3.664063;-10.723938;-7.800674;-11.749948;-10.414259;-13.951889;-7.758889;-10.930825;-6.762076;
3.667969;-6.343212;-6.802474;-4.157411;-9.370281;-6.833912;-10.246511;-7.628335;-8.525707;
3.671875;-10.387135;-12.748221;-14.446861;-11.006289;-15.764033;-9.687683;-14.607965;-11.285235;
3.675781;-10.497443;-15.555924;-20.454329;-6.345027;-21.672287;-1.812976;-17.389311;-7.926665;
3.679688;6.320302;1.089916;0.580125;13.115343;-2.546760;15.031804;0.405582;8.984584;
3.683594;19.616669;18.371067;21.846399;23.731358;18.219690;21.506855;17.992371;20.323107;
3.687500;12.855197;15.711816;18.032852;10.908826;17.346457;9.761868;15.842621;12.600864;
3.691406;2.433955;7.045265;6.310875;-2.609259;8.875983;-0.644390;7.808586;3.049700;
3.695313;-0.056611;3.168634;1.296604;-4.463588;4.326556;-1.373589;3.902891;1.561395;
3.699219;8.002625;9.741229;7.398554;6.803438;6.509745;7.876826;7.458848;9.422492;
3.703125;6.977499;11.870939;5.044867;7.872429;3.008135;8.212156;6.109429;9.579728;
3.707031;-8.036395;1.231250;-10.046575;-9.840476;-7.520503;-7.891088;-3.509680;-4.147560;
3.710938;-6.721681;-0.360873;-6.505255;-11.353301;-3.148857;-11.129916;-0.911762;-6.174091;
3.714844;10.410530;7.119394;13.481084;6.246994;12.559009;3.451933;10.652557;5.258380;
3.718750;23.535223;14.995497;29.566599;21.206553;24.748333;15.900325;19.168657;15.064713;
3.722656;16.723389;11.671250;22.544945;15.934628;18.516903;8.515911;13.300275;9.507234;
3.726563;-5.224992;-6.079491;-5.513017;-3.619086;-5.225719;-9.483407;-6.537775;-7.546974;
3.730469;-11.674798;-11.351425;-16.497543;-7.374499;-15.459264;-9.229752;-13.155574;-9.959565;
3.734375;-8.320501;-4.088307;-11.026582;-6.890590;-11.221327;-4.472589;-7.333716;-5.037156;
3.738281;-12.208187;-0.402606;-10.840524;-15.629469;-9.841235;-11.710490;-5.589188;-8.157826;
3.742188;-16.950439;-3.452105;-15.514896;-18.253757;-11.864592;-15.206733;-8.689297;-11.940216;
3.746094;-17.002848;-10.334374;-18.797001;-13.955816;-13.464683;-9.943958;-12.649592;-11.685841;
3.750000;-9.218525;-7.847703;-11.993142;-6.615894;-9.160807;-3.824335;-9.346907;-5.998073;
3.753906;-0.900056;-0.586060;-2.738746;-1.042379;-4.078122;-2.791493;-3.079046;-1.192556;
3.757813;8.815928;7.297860;8.793187;7.477244;5.418390;3.393343;6.660136;5.166330;
3.761719;16.532249;13.781177;20.730038;12.712530;18.685024;10.871371;17.453779;10.873506;
3.765625;8.969286;8.637963;15.191884;1.038427;16.802448;3.859611;14.026486;4.686306;
3.769531;5.408837;8.460454;7.394186;1.033659;8.874038;4.003337;9.103467;4.762186;
3.773438;12.551522;14.824852;7.355172;18.142918;5.346754;16.131859;10.295351;14.100599;
3.777344;14.316631;12.186548;6.406671;23.752377;2.518773;17.969481;8.563748;14.640406;
3.781250;6.200335;2.401372;3.533876;10.448497;1.121238;6.915906;3.474928;4.768203;
3.785156;-11.999524;-12.076853;-7.361977;-15.579050;-5.942188;-12.660600;-7.580963;-12.384751;
3.789063;-19.074604;-14.771645;-11.715332;-25.463387;-10.860941;-23.016752;-12.208982;-19.064976;
3.792969;-6.947813;-4.681787;-1.688747;-11.691802;-4.998670;-16.923298;-4.658204;-10.785884;
3.796875;4.334041;-0.602252;8.202978;-0.780874;4.455554;-10.246037;2.967745;-4.889603;
3.800781;4.827031;-1.892713;10.272278;-0.754197;10.671601;-8.042914;5.958916;-4.342539;
3.804688;-4.817114;-5.334351;-0.493760;-6.420955;5.653818;-7.831414;0.742735;-6.392911;
3.808594;-8.771127;-4.775539;-8.245893;-5.407431;-2.209740;-4.929759;-4.491442;-5.441433;
3.812500;-8.164452;-6.326472;-8.928010;-5.852690;-7.308042;-7.465835;-8.070424;-7.852445;
3.816406;-13.787081;-14.908073;-13.208288;-16.229563;-10.522376;-15.773171;-12.865585;-15.876614;
3.820313;-8.304574;-9.468144;-6.937057;-10.021946;-1.710569;-7.851170;-5.168209;-8.657196;
3.824219;6.873554;4.842007;5.565133;9.253539;8.111543;7.362055;7.246489;7.150144;
3.828125;14.913878;11.013369;11.149572;17.541622;9.154523;11.097877;11.416215;12.661587;
3.832031;7.244373;3.364924;6.291248;5.721944;4.764322;1.300743;5.559951;2.813987;
3.835938;-9.998411;-13.638230;-6.096951;-16.373133;-3.040395;-14.540397;-7.020596;-14.675391;
3.839844;-6.997933;-12.072526;-1.974047;-12.263736;0.100542;-11.018393;-5.193577;-11.916532;
3.843750;11.725240;4.510732;12.022483;13.396260;8.828758;9.104164;7.402948;7.491466;
3.847656;19.277830;11.999555;14.880854;25.856689;10.294790;21.122154;12.241411;17.476242;
3.851563;11.668384;7.465899;9.361374;15.427282;7.405876;15.007331;8.460703;11.354195;
3.855469;-3.737190;-3.727118;-0.897669;-9.047310;0.471394;-6.903317;-0.908351;-4.794516;
3.859375;-6.748755;-2.074253;-2.948025;-16.074877;-1.409180;-16.621458;-2.003000;-8.246117;
3.863281;-0.272675;7.985036;-2.104343;-2.688574;-1.719963;-3.610770;1.917608;1.940742;
3.867188;-2.622933;6.226259;-10.225304;3.774764;-8.814637;8.383394;-2.301895;5.402124;
3.871094;-9.868192;-2.855894;-15.778398;-2.710399;-13.033780;3.716669;-8.112783;-0.913147;
3.875000;-14.528904;-10.836734;-15.178976;-13.937164;-12.577652;-11.780175;-11.136515;-10.341256;
3.878906;-5.868235;-2.915393;-3.960512;-8.933322;-4.219243;-11.468186;-3.423208;-5.318518;
3.882813;5.109297;11.601816;5.893778;4.257239;4.850306;1.938563;7.705016;7.981411;
3.886719;1.387319;9.130856;0.299608;2.184791;3.388004;3.689396;6.201381;7.312244;
3.890625;0.349363;4.327672;-0.095878;1.827391;4.131672;3.714919;4.457193;4.534061;
3.894531;8.416351;9.939613;8.118894;12.065814;8.997700;13.074290;9.437928;11.306106;
3.898438;17.257084;20.915884;15.514166;22.878443;13.008129;23.674992;16.656998;21.656317;
3.902344;17.052713;21.235479;15.975117;19.733297;12.554341;18.033157;16.885784;19.812632;
3.906250;6.550665;6.036828;8.748413;1.795427;6.003607;-1.477681;7.138799;3.719560;
3.910156;3.975410;0.654686;8.752140;-2.286628;5.068972;-3.165515;4.382363;-0.906062;
3.914063;3.005029;3.655463;4.756968;5.129260;2.885964;8.780286;4.040806;4.847375;
3.917969;-3.682517;2.170369;-8.031235;6.252134;-5.414875;10.704784;-1.555568;5.364588;
3.921875;-9.051085;-3.453416;-14.895437;-2.747900;-11.321610;-0.202842;-6.826375;-2.346043;
3.925781;-14.658079;-13.287277;-16.650850;-19.031359;-13.837052;-15.528723;-12.009602;-15.410456;
3.929688;-7.869297;-8.207620;-5.164999;-14.739515;-3.611607;-12.583578;-4.879235;-11.999138;
3.933594;6.468583;8.180888;9.148644;6.334911;9.233274;5.518051;9.055789;5.585994;
3.937500;8.068452;10.634534;6.807098;11.816917;5.880169;12.266803;9.319558;11.042994;
3.941406;-0.857289;-2.260402;-3.509511;0.129578;-5.799845;2.361417;-2.197970;0.446114;
3.945313;-7.163045;-13.391373;-7.539312;-9.424551;-9.945597;-7.053698;-10.129621;-9.041364;
3.949219;3.281318;-0.876136;6.416596;2.239870;4.347872;2.618368;1.474417;1.913510;
3.953125;12.360213;14.429491;16.736069;12.660779;15.762226;10.616901;13.345353;13.172314;
3.957031;4.135333;6.374621;6.044206;2.872782;6.284667;1.436558;5.440825;4.691550;
3.960938;0.824640;-2.642781;-0.090937;0.041983;-1.427008;-0.061736;-0.965033;-0.957846;
3.964844;4.404816;-1.753075;2.807182;6.337701;0.390619;6.292039;1.358438;2.020029;
3.968750;7.222231;3.698235;7.588924;11.205224;4.611177;9.214179;5.079562;5.918892;
3.972656;7.266510;5.265063;9.126177;11.506236;5.050909;8.371421;4.458464;6.705245;
3.976563;-1.489416;-5.211535;-0.259901;0.399334;-2.472079;-0.511431;-4.744627;-2.172702;
3.980469;-11.383895;-15.038759;-9.195067;-12.395219;-8.421936;-12.638053;-12.303246;-13.181781;
3.984375;-14.963640;-15.970311;-11.868202;-16.984873;-10.310737;-18.519472;-13.477762;-16.910021;
3.988281;-5.083776;-4.854727;-4.281039;-4.680858;-4.524007;-6.551398;-5.045681;-5.777340;
3.992188;6.955078;5.440492;4.462770;10.490966;3.475620;10.587542;4.302314;7.420329;
3.996094;3.338016;-0.067314;-0.913604;6.636540;0.148417;10.846816;0.941130;4.975282;
4.000000;1.184631;-0.400185;-1.887807;3.987760;-0.779471;8.520467;0.150903;3.793492;
4.003906;4.569924;7.188987;3.846925;8.136189;4.695794;9.591432;4.709751;7.985126;
4.007813;2.923730;6.850060;3.821132;5.985147;6.021184;6.322420;3.992361;6.103298;
4.011719;-4.279846;-4.023479;-2.880403;-3.395819;-0.841377;-2.339428;-3.849934;-3.457506;
4.015625;-13.672967;-18.161676;-13.908103;-14.860629;-13.238420;-13.225925;-15.576547;-14.971487;
4.019531;-4.815178;-10.493402;-6.682402;-4.436401;-9.531427;-4.977775;-10.482102;-6.273560;
4.023438;12.702906;8.145700;11.207184;15.868944;5.420363;13.704551;5.018019;12.274372;
4.027344;10.310827;6.585339;10.667240;12.778775;6.602517;12.972071;5.069394;10.440088;
4.031250;-5.328197;-7.806664;-3.184333;-5.638129;-3.510610;-3.592675;-6.395006;-5.862982;
4.035156;-17.628613;-18.794209;-15.798855;-19.978334;-13.721786;-18.917187;-16.693691;-18.956318;
4.039063;-11.696153;-13.096050;-10.569173;-12.646719;-10.769292;-15.020116;-13.065863;-14.097800;
4.042969;1.495382;-1.745461;2.649238;2.832057;-1.033499;-1.458186;-3.132429;-2.001572;
4.046875;-0.370070;-5.490060;0.488076;-0.115311;-2.329457;-2.087605;-4.900019;-3.917805;
4.050781;-4.255164;-9.675984;-3.812370;-4.886248;-5.197515;-4.632974;-7.719249;-6.816507;
4.054688;3.713194;-0.893687;3.116099;4.862674;0.883390;6.114878;-0.389798;2.969777;
4.058594;17.697784;13.513842;17.282337;21.064592;12.476374;21.101892;12.159793;16.991083;
4.062500;15.081645;10.200260;16.460791;17.790623;10.978616;15.462623;9.711390;12.116570;
4.066406;-5.464947;-10.859608;-4.161933;-5.949001;-6.155634;-7.092814;-8.853302;-8.913224;
4.070313;-8.243250;-12.376702;-8.613684;-8.641829;-8.439642;-7.995632;-10.779330;-9.398545;
4.074219;6.886372;4.367772;5.308020;8.867092;4.804234;9.389785;3.948197;8.002676;
4.078125;18.560839;16.726902;17.278299;20.262079;14.792250;20.165541;15.048871;19.428661;
4.082031;15.832695;14.615438;15.248641;15.668383;12.179874;17.516745;12.800244;15.954985;
4.085938;-0.922526;-1.469904;-1.946573;-1.602775;-1.296517;4.448839;-1.323790;0.275144;
4.089844;-3.098174;-3.905220;-3.525408;-2.180350;-1.028007;0.884879;-2.045839;-2.917412;
4.093750;7.025650;5.781111;8.575917;7.547167;9.320661;3.766926;8.221001;3.728595;
4.097656;2.898695;3.058583;5.910638;0.063978;6.808389;-2.638738;6.227942;-1.282098;
4.101563;-12.621008;-11.539418;-10.462752;-16.537333;-6.862452;-13.567634;-7.568246;-14.228281;
4.105469;-21.888565;-23.247931;-23.040495;-24.658310;-18.109447;-19.682755;-19.172180;-21.448454;
4.109375;-8.137076;-11.423838;-9.704933;-10.387447;-8.622268;-9.306708;-9.294682;-9.564041;
4.113281;7.533473;6.571581;9.106527;5.347136;8.054493;4.054491;7.216346;4.683133;
4.117188;-1.554516;1.728166;0.560688;-1.922457;4.148999;1.209379;2.237339;-0.488750;
4.121094;-17.112469;-12.825253;-17.829311;-14.556402;-11.468134;-8.376893;-13.319765;-12.082314;
4.125000;-16.496521;-15.951206;-18.948393;-14.577425;-15.345335;-11.796557;-16.095703;-13.180452;
4.128906;2.564677;0.696006;1.962866;2.056183;1.718827;-1.183807;1.525963;1.693892;
4.132813;11.862163;12.089484;12.927664;10.828446;12.615012;6.140490;12.094707;10.477606;
4.136719;-1.951509;-0.195525;-2.017021;-2.988588;0.717142;-3.662163;-0.674721;-1.226988;
4.140625;-7.915318;-7.322329;-8.733572;-8.382085;-5.238997;-7.965310;-7.000517;-7.217982;
4.144531;0.496646;0.331546;-0.458692;1.388090;1.932115;-0.524043;1.174248;0.331723;
4.148438;6.422629;7.492711;5.296396;8.694388;6.062561;5.782145;6.584416;6.322887;
4.152344;-1.004001;1.241309;-2.272327;0.886082;-2.014168;-0.451953;-1.250822;-1.213629;
4.156250;-13.539567;-12.008653;-15.741551;-14.609657;-13.550292;-13.638049;-12.944307;-14.189706;
4.160156;-8.373692;-7.637993;-9.608152;-11.625521;-7.199801;-12.063384;-7.350875;-10.040974;
4.164063;2.098550;3.099873;3.714252;-1.622962;4.964223;-3.941007;2.670787;-0.184053;
4.167969;6.703567;7.757674;8.936987;4.137533;9.046851;3.190123;5.956807;5.195775;
4.171875;10.183048;10.712210;10.171947;9.690047;9.452427;11.330079;8.448089;10.397271;
4.175781;2.106783;2.776366;0.747606;0.787914;1.862708;4.850479;2.435570;3.720868;
4.179688;-6.166949;-3.685817;-5.279243;-9.413422;-3.369467;-7.236551;-3.021617;-5.423632;
4.183594;-2.975202;1.232268;-0.973564;-5.519892;-0.570472;-7.228805;0.303520;-3.223815;
4.187500;3.907822;7.991032;2.422149;4.476397;2.095304;3.449925;4.755630;5.694272;
4.191406;5.972790;8.797214;0.943400;9.453183;1.077634;11.763777;4.396194;10.822616;
4.195313;-1.350964;0.592663;-5.816487;1.016683;-4.186090;4.964228;-2.312263;3.863215;
4.199219;0.453378;3.431926;0.397479;-0.164673;1.479633;0.906776;1.736646;2.528593;
4.203125;9.383819;13.408579;12.587432;6.579502;11.980809;3.954893;11.791776;7.990691;
4.207031;5.249574;7.054969;7.832647;-0.343995;6.774050;-3.920163;6.738740;1.354086;
4.210938;-2.412524;-3.797646;-1.125365;-9.484173;-3.089261;-14.213618;-3.133615;-8.182963;
4.214844;-5.862436;-6.285456;-5.535418;-10.445774;-5.989183;-14.804660;-6.638907;-9.601870;
4.218750;-0.382291;3.554740;-0.479760;0.719396;1.446229;-2.073864;0.277879;0.345060;
4.222656;10.179802;14.146725;10.654654;13.673125;11.178901;11.168797;10.254488;11.354259;
4.226563;9.772088;8.764175;10.750754;9.016086;9.352570;7.689931;8.577592;8.017810;
4.230469;0.233833;-0.876521;0.960747;-3.199531;0.630754;-2.978535;0.020894;-1.156889;
4.234375;-9.786156;-5.257957;-11.299334;-10.327517;-8.882678;-9.246037;-7.881946;-6.370192;
4.238281;-3.478194;2.552026;-7.266993;-0.324942;-6.270477;-0.543502;-2.813754;2.021021;
4.242188;10.858850;12.970702;7.178224;14.097684;4.833828;13.150382;9.049356;14.250678;
4.246094;4.594520;5.599487;2.136864;4.160128;2.387549;6.967935;5.133870;7.614830;
4.250000;-3.783846;0.149907;-4.350378;-6.890222;-1.003849;-3.183425;0.160821;-0.313743;
4.253906;2.797471;6.377483;4.108898;-1.636753;5.637867;-2.047972;5.864961;3.299549;
4.257813;11.670388;11.050340;14.857540;5.778232;13.092767;2.644080;12.246264;7.500322;
4.261719;11.816300;9.416593;15.391697;7.378033;12.844192;5.339983;12.188767;7.306937;
4.265625;3.379225;3.137202;3.016028;3.257176;2.596450;4.607755;5.151149;4.541060;
4.269531;5.573405;8.597282;2.485800;8.894365;1.946093;10.260148;7.695764;11.051405;
4.273438;13.202783;17.022249;13.256642;15.289996;10.844565;14.065555;15.352207;17.097664;
4.277344;10.079159;11.495070;13.918651;8.684994;11.282867;7.238883;12.241581;10.920117;
4.281250;3.963460;3.654758;6.793637;3.094975;4.783158;3.448761;5.207416;5.146130;
4.285156;-0.907856;0.063732;-2.125445;0.911734;-2.437873;4.021087;0.184751;3.042434;
4.289063;1.031329;4.133433;-0.810556;3.999229;-0.871274;6.779134;2.636665;5.182980;
4.292969;2.598789;5.203974;2.312089;4.989393;1.414921;5.135813;3.699387;4.334071;
4.296875;-3.924515;-4.380995;-5.816594;-3.185278;-6.143728;-2.797478;-4.750612;-3.792093;
4.300781;-4.162703;-6.518417;-7.952516;-4.253597;-8.509045;-3.313661;-6.918751;-4.820509;
4.304688;-1.282093;-1.648597;-4.213114;-0.823784;-4.452948;0.203516;-2.913864;-1.123101;
4.308594;-1.822476;3.037641;-2.385912;0.449137;-1.389560;2.647486;-0.336737;0.984582;
4.312500;-6.946567;0.986179;-6.217239;-4.854076;-4.490560;-1.371329;-3.696640;-3.252146;
4.316406;-15.792790;-9.824333;-16.036161;-17.726860;-13.448195;-14.266920;-12.522480;-14.330072;
4.320313;-14.274508;-10.677996;-15.127684;-17.737354;-13.298862;-17.273830;-12.223300;-15.409300;
4.324219;-7.472774;-5.029127;-7.987188;-8.810401;-8.194545;-11.270128;-7.499432;-10.134544;
4.328125;-2.820226;-2.542811;-2.781158;-3.468568;-5.828703;-7.813507;-5.295596;-7.820240;
4.332031;-3.013865;-5.129642;-2.887810;-5.129731;-7.622791;-11.087122;-6.265882;-10.039842;
4.335938;-12.298887;-15.521400;-13.693112;-15.227306;-16.178209;-19.869034;-14.096665;-18.161888;
4.339844;-11.122928;-13.365005;-12.633210;-11.563585;-13.983724;-14.302253;-12.039206;-14.339398;
4.343750;-0.916091;-0.337079;-0.287596;0.684652;-2.365748;-0.794572;-0.731704;-1.835865;
4.347656;0.447971;3.611097;2.351250;-0.148103;1.417316;-0.255172;3.217536;0.563709;
4.351563;-2.419252;0.276576;-1.312063;-5.881775;-0.753246;-5.683662;1.492652;-3.354896;
4.355469;-3.270284;-3.484536;-4.019778;-6.853947;-3.174984;-6.055514;-0.721976;-5.219180;
4.359375;3.818314;3.531884;3.268037;3.383432;2.675648;3.448980;5.040254;2.654455;
4.363281;8.173161;10.170505;9.309158;9.955100;8.352185;7.939734;10.312404;8.446106;
4.367188;1.708374;2.477247;3.672854;1.718355;3.821651;-0.836546;4.843976;1.567439;
4.371094;-2.025071;-5.115976;0.498569;-2.995733;-0.142973;-4.822703;-0.200604;-3.708659;
4.375000;-2.610090;-7.244667;-0.779194;-1.496396;-2.024362;-1.378563;-2.173219;-3.613284;
4.378906;1.481240;-1.374139;2.284620;4.649308;0.678963;4.945428;1.554829;1.778227;
4.382813;2.901657;1.533634;3.909494;4.551951;2.421924;4.026000;3.076327;2.712984;
4.386719;-7.635476;-10.306832;-6.854660;-8.519371;-5.558064;-6.798633;-7.450042;-8.177257;
4.390625;-9.551378;-14.381561;-9.716563;-7.473084;-7.549553;-4.189146;-11.163684;-9.120772;
4.394531;1.525678;-4.283171;0.704172;7.762887;0.155583;10.786694;-2.429360;3.215949;
4.398438;11.939935;7.460201;12.037498;17.082518;9.063384;19.995340;8.034760;13.793344;
4.402344;9.513197;7.545195;10.468984;10.565906;8.836674;13.810286;8.044655;10.955852;
4.406250;-4.275216;-5.258739;-4.721008;-6.219421;-2.888637;-2.431303;-3.976758;-2.946273;
4.410156;-5.066121;-6.171144;-6.121111;-6.002516;-4.852707;-5.015325;-5.770388;-4.590570;
4.414063;2.518257;1.105781;2.896867;3.988425;2.159241;0.863559;1.071302;1.717791;
4.417969;1.280779;-0.188990;3.287131;3.158578;3.555411;-0.924143;1.362141;-0.255061;
4.421875;-7.161915;-8.409035;-5.157646;-5.754584;-2.817323;-8.025979;-5.686387;-8.615228;
4.425781;-14.869324;-17.276379;-14.420272;-14.040991;-11.530837;-13.795228;-13.867480;-15.987580;
4.429688;-6.047003;-10.271951;-4.609729;-4.808435;-4.752687;-4.996720;-6.702560;-8.138503;
4.433594;5.472652;0.556416;9.305513;6.929823;7.207955;5.992961;4.277427;2.462243;
4.437500;1.362908;-3.877060;4.585172;1.578082;4.521070;1.630623;0.251830;-1.543300;
4.441406;-6.480262;-12.671998;-5.458265;-6.893095;-3.739473;-7.248920;-8.273279;-9.383812;
4.445313;-11.170137;-17.359583;-10.809061;-11.239570;-8.245678;-10.749729;-12.333072;-13.029262;
4.449219;-6.037743;-9.582079;-3.995728;-4.108529;-2.447827;-2.316876;-6.060591;-6.101067;
4.453125;1.368447;-0.302058;3.738830;5.392048;3.844459;6.539832;0.604058;2.246424;
4.457031;-1.968536;-5.318768;-1.955427;0.760520;-1.133673;1.644372;-4.234395;-1.296126;
4.460938;-6.491872;-11.651132;-7.287186;-6.388588;-6.470226;-5.772030;-9.406485;-6.895381;
4.464844;-7.694101;-11.641624;-7.918659;-7.982862;-7.815178;-7.166673;-9.982254;-7.985008;
4.468750;-1.187986;-2.112560;-1.489994;1.330734;-2.257289;2.468458;-2.870074;0.021996;
4.472656;4.546113;4.522666;3.332042;8.913793;2.519107;10.442459;3.125044;6.642150;
4.476563;-3.217772;-5.211087;-5.390285;-0.928682;-4.404260;1.755977;-4.135150;-1.355009;
4.480469;-6.022467;-9.355469;-6.966706;-4.677268;-6.479676;-3.220558;-7.407246;-4.943665;
4.484375;1.460388;-1.928539;2.388195;3.757817;0.688593;3.247684;-1.079651;2.141378;
4.488281;7.071658;4.497045;8.360786;8.938140;6.113757;7.971681;4.165667;7.648915;
4.492188;0.849212;0.941474;0.937418;1.905296;1.011220;2.314772;-0.303219;2.725920;
4.496094;-14.790043;-11.626799;-17.020248;-13.169746;-12.935584;-8.458789;-12.623231;-9.503393;
4.500000;-13.163302;-9.242100;-16.064798;-9.280388;-12.419740;-3.093788;-10.295139;-6.818048;
4.503906;3.148413;4.696758;1.148203;7.512559;0.763242;10.117771;3.511843;6.152263;
4.507813;9.873171;9.486813;8.649492;11.640589;6.629716;10.566381;9.049211;9.698262;
4.511719;2.250997;3.744098;1.951673;1.835729;2.180432;0.510393;4.191540;3.007809;
4.515625;-9.518783;-5.099196;-8.806019;-11.028800;-5.194682;-9.223324;-3.927996;-6.095758;
4.519531;-5.471345;-0.133620;-3.277909;-6.658274;-0.520978;-4.299348;-0.129085;-2.549981;
4.523438;3.010244;7.226054;5.134928;2.638372;5.941503;2.881541;5.941334;3.712745;
4.527344;-1.342479;0.912868;-1.252902;-2.380905;0.771430;-1.987280;0.728655;-1.040799;
4.531250;-3.912277;-3.480286;-4.491385;-6.022602;-2.462075;-4.992785;-2.233655;-3.532695;
4.535156;1.581620;-0.101829;1.371146;-1.220185;0.845010;-1.387695;1.623306;0.541993;
4.539063;13.634950;11.299656;13.853049;12.301871;10.481355;9.000226;11.514448;10.835385;
4.542969;17.096624;16.668009;16.990721;18.054487;14.500928;13.935228;15.215791;15.323129;
4.546875;2.778195;3.848174;1.061084;3.065506;2.589821;2.183222;3.196947;3.658583;
4.550781;-4.786887;-3.956515;-6.986267;-5.712425;-5.274509;-5.862887;-4.158427;-3.914142;
4.554688;1.568222;2.188742;0.368381;0.445866;-0.690940;-1.773266;0.600616;0.627217;
4.558594;11.731555;14.001453;12.051998;10.191600;8.922054;6.611134;10.026731;9.974302;
4.562500;13.231528;17.189701;13.634276;10.905066;10.649224;8.010679;12.069020;12.408518;
4.566406;3.814379;6.637285;1.654613;1.245353;1.041736;0.874508;3.110983;4.629719;
4.570313;5.553738;6.351724;1.934698;5.171274;1.258783;4.849354;3.793159;6.245910;
4.574219;14.799927;14.960201;12.373272;16.116453;9.696255;14.064047;12.095264;13.862801;
4.578125;15.065413;17.050819;14.766485;15.360122;12.024919;13.218645;13.747050;13.881412;
4.582031;3.879234;9.979365;4.246187;2.847209;4.874331;3.299468;6.201813;5.683930;
4.585938;-10.860385;-2.845751;-12.596802;-12.725332;-7.722417;-8.569751;-6.154731;-5.845367;
4.589844;-6.076674;0.163791;-8.525839;-7.689698;-5.056572;-4.418115;-3.189141;-2.162303;
4.593750;8.246033;12.636354;7.888696;6.342769;7.494392;6.574886;9.147843;9.268447;
4.597656;9.973831;13.716187;10.919262;6.431812;9.892594;6.010564;11.085139;9.690796;
4.601563;4.828251;7.459116;5.222886;1.241220;5.307434;0.174406;5.846864;3.715439;
4.605469;-0.219576;0.858936;-0.710493;-2.642700;0.715639;-4.691789;0.474231;-2.013145;
4.609375;4.219910;5.576351;4.042581;3.397371;3.846894;-0.599601;4.226072;2.150067;
4.613281;9.035551;11.477179;8.280650;9.353140;5.659053;4.349874;7.823683;7.430803;
4.617188;1.320218;3.447653;-1.391004;0.899441;-2.210242;-1.694010;0.156375;0.602965;
4.621094;-6.485664;-4.807060;-8.881824;-7.817167;-6.464302;-7.983674;-5.875014;-7.060540;
4.625000;-7.520765;-5.695677;-7.804313;-9.102246;-4.153284;-8.462822;-5.184072;-8.366997;
4.628906;1.325239;3.636187;2.968092;0.916970;4.478703;0.040556;3.186801;0.165200;
4.632813;6.513876;9.098584;8.762427;7.200474;8.498609;5.298977;7.596500;5.872134;
4.636719;-4.584745;-2.601325;-3.554292;-5.904545;-1.863552;-5.547911;-2.592053;-3.951963;
4.640625;-9.529133;-7.961758;-9.539068;-12.975595;-7.087029;-12.359205;-7.510117;-8.931784;
4.644531;-0.558491;0.867624;-0.978875;-3.507471;-0.659367;-5.219686;-0.391652;-1.040509;
4.648438;12.191403;12.866812;12.135448;11.148812;9.262820;7.880536;9.990260;10.411653;
4.652344;14.726145;14.310905;15.009101;14.023310;11.301044;11.937800;11.743710;12.543116;
4.656250;0.893242;0.220194;-0.231604;-1.333068;-0.061311;0.690778;-0.291185;0.908334;
4.660156;-2.997759;-3.211640;-4.932487;-3.954943;-3.108410;-1.702951;-3.431050;-0.946945;
4.664063;7.540938;6.342801;6.767736;8.642458;4.698150;6.880997;5.245118;8.309209;
4.667969;11.076618;9.215713;12.734327;10.350772;6.822829;7.815374;8.085999;9.436656;
4.671875;0.431925;0.946267;3.187195;-2.384017;-0.714255;-0.987976;-0.226678;-0.426909;
4.675781;-13.801930;-11.233500;-14.666464;-14.101816;-12.280048;-8.803713;-12.810331;-10.729092;
4.679688;-8.009899;-6.479745;-12.448658;-2.526843;-9.391326;1.383294;-9.168734;-3.223968;
4.683594;5.215751;4.737487;2.321333;11.329493;1.290665;12.127657;2.404666;7.604951;
4.687500;1.122479;0.827448;1.996402;0.852238;0.892404;0.980884;0.619404;0.680587;
4.691406;-8.330843;-7.110494;-5.822320;-13.097691;-3.821095;-13.672505;-6.265882;-9.566010;
4.695313;-9.202556;-8.865005;-8.027233;-13.601545;-5.186256;-14.410951;-7.610292;-10.208541;
4.699219;3.608267;1.840520;3.769751;1.836927;2.046894;0.558695;1.998285;1.990930;
4.703125;12.890182;10.458168;12.457297;13.235428;6.844609;11.727530;8.506878;11.238421;
4.707031;3.051546;0.785213;1.077164;3.061872;-1.371017;4.347860;-0.986639;3.183989;
4.710938;-6.938298;-8.587419;-8.611355;-7.909719;-6.463425;-4.353449;-8.741039;-5.786454;
4.714844;-7.228957;-8.151040;-7.007833;-8.450131;-4.406457;-6.244357;-7.493862;-7.041276;
4.718750;0.761623;0.595246;2.210353;0.675620;1.303042;-1.083094;-0.003889;-0.484493;
4.722656;5.310267;5.435833;6.648644;5.402287;3.667593;2.414908;4.119398;3.699009;
4.726563;-2.980155;-3.761975;-2.795860;-5.412511;-3.366575;-5.222089;-3.162155;-4.433739;
4.730469;-4.986594;-6.162123;-5.712264;-7.084913;-4.632189;-6.551692;-5.211281;-6.724490;
4.734375;1.215481;0.768519;-0.302152;2.382946;0.380014;0.620124;0.082081;-0.207578;
4.738281;4.863481;5.166348;4.077588;6.682163;3.220060;4.349842;3.650662;3.628878;
4.742188;0.939944;1.052960;2.171887;0.678583;0.306537;0.149149;0.530790;-0.834180;
4.746094;-8.283690;-10.132989;-7.138206;-9.711735;-7.309036;-7.464759;-8.226233;-10.240137;
4.750000;-1.829370;-6.108541;-1.444827;-0.873851;-2.636017;-0.505686;-3.947901;-4.809571;
4.753906;10.457358;5.000716;11.014709;13.539453;6.188901;10.009871;5.592916;6.175483;
4.757813;7.020110;2.409698;7.543891;9.323370;2.547782;6.507050;2.488015;3.701602;
4.761719;-4.381530;-7.353906;-4.618115;-3.152807;-6.446238;-2.797246;-6.731230;-5.339733;
4.765625;-10.733924;-13.957192;-12.213835;-10.492191;-11.271368;-8.735613;-12.299109;-10.904277;
4.769531;0.422874;-3.510688;-0.773211;1.480762;-1.173241;0.968896;-2.684631;-0.712300;
4.773438;11.413496;8.767273;11.192107;14.349606;9.142673;13.222002;7.860802;11.001032;
4.777344;1.669548;0.906069;1.484295;3.681575;1.383496;6.343165;0.404981;3.392282;
4.781250;-11.119848;-11.428842;-10.936568;-10.689855;-8.881259;-6.135274;-10.176426;-9.001162;
4.785156;-13.788032;-14.530499;-13.092905;-12.673990;-9.775078;-9.646392;-11.644278;-12.187798;
4.789063;-4.154244;-4.737927;-2.851257;-0.714762;-0.675170;-1.886923;-2.271240;-3.638853;
4.792969;4.470037;2.873478;6.237164;7.270274;5.620165;2.452982;4.595325;2.298700;
4.796875;-0.107626;-4.216175;2.586962;-3.496477;1.158607;-7.268785;-0.765935;-5.608819;
4.800781;-3.222649;-7.241644;1.676117;-11.006923;0.899423;-12.720293;-2.678676;-10.068414;
4.804688;-3.654009;-4.652412;0.176328;-8.110580;2.076771;-8.472862;-1.523763;-7.172495;
4.808594;-4.781970;-4.008799;-5.629982;-2.399040;-1.236975;-2.061266;-3.194875;-3.659809;
4.812500;-7.177701;-8.460866;-10.370997;-3.341173;-5.752913;-2.558517;-7.257001;-5.463427;
4.816406;-13.019835;-16.954638;-14.728021;-13.776053;-9.382266;-10.631138;-12.472365;-12.991269;
4.820313;-9.457597;-11.811581;-8.540803;-11.319225;-3.384558;-7.047727;-6.971423;-9.535799;
4.824219;-0.944253;-0.530865;0.980164;0.328068;3.711424;3.501459;1.839991;0.019310;
4.828125;3.260010;3.118360;5.567879;5.450221;4.568487;7.043098;4.445768;3.653572;
4.832031;1.346146;-0.539368;3.971736;2.301846;1.449847;3.159206;2.078617;0.599445;
4.835938;-8.344151;-10.647642;-7.655913;-7.288582;-6.758696;-5.349028;-6.193517;-8.098017;
4.839844;-6.901733;-8.787107;-7.697542;-2.868562;-5.258688;-2.457876;-5.518057;-5.768565;
4.843750;2.325103;0.695659;2.765506;7.004848;3.008993;5.356533;1.838541;2.732427;
4.847656;2.592536;1.281437;4.255456;2.374898;3.392641;2.858348;2.608504;2.187533;
4.851563;0.754507;-0.612594;1.300400;-3.480733;0.847361;-0.942622;1.438169;-0.108546;
4.855469;0.424571;-2.708499;-1.301681;-2.973876;-1.017294;-1.479672;0.001369;-0.948553;
4.859375;7.096677;2.054795;6.103648;7.088675;3.960519;4.228072;4.661246;4.170823;
4.863281;12.319555;7.075321;13.861506;13.186056;8.487297;7.921341;9.214582;8.315218;
4.867188;3.183672;-0.007538;4.890388;1.858990;1.504997;0.702201;2.182532;1.246239;
4.871094;-8.210331;-7.300674;-7.722986;-9.183464;-6.649410;-5.996635;-5.987454;-6.133508;
4.875000;-12.355973;-9.018569;-12.887449;-10.250791;-9.608191;-6.487036;-8.623423;-7.739412;
4.878906;-2.301996;-0.008731;-2.860361;2.914994;-1.167864;4.672727;-0.254262;1.631111;
4.882813;7.396580;8.176058;7.222552;13.353587;7.659009;13.883698;8.020805;9.873540;
4.886719;-0.580368;-0.436770;-0.997090;2.189304;0.838762;3.397760;1.135499;1.057498;
4.890625;-3.992320;-4.869713;-3.965045;-4.415476;-3.108545;-5.191834;-2.564352;-4.618360;
4.894531;3.406229;1.616452;4.355781;1.653348;3.111262;-2.200403;3.163496;0.717125;
4.898438;9.070233;9.566466;11.106378;7.665589;9.840588;3.304224;9.430119;7.596218;
4.902344;5.168224;10.065826;7.593364;4.965047;8.271004;3.630488;8.143608;7.331031;
4.906250;-8.250991;-2.069217;-7.548800;-9.042809;-3.810101;-5.337051;-4.066735;-4.093463;
4.910156;-9.183000;-5.371288;-9.682298;-9.985410;-6.804674;-6.287357;-7.358607;-7.248386;
4.914063;1.282031;2.047273;0.912812;2.052145;-0.618433;1.846735;-0.147165;0.383300;
4.917969;6.425076;6.073256;5.856586;7.944826;1.857449;6.211703;3.898245;5.834472;
4.921875;1.750512;2.979663;-0.148287;3.542741;-2.132855;4.018101;0.454926;4.433636;
4.925781;-10.523818;-7.332075;-14.244886;-8.807031;-12.375661;-4.394044;-9.683647;-4.409188;
4.929688;-10.072135;-5.497093;-12.118487;-8.841194;-11.226005;-5.777379;-8.214534;-4.619841;
4.933594;-0.209753;5.873832;1.580045;-0.487665;-0.426629;-1.795727;2.528515;2.416516;
4.937500;2.215554;8.770690;4.804510;0.172649;3.303787;-0.662766;6.203207;4.310946;
4.941406;3.234073;7.034904;4.015564;1.087962;3.396251;2.216952;6.597919;5.177641;
4.945313;6.231812;4.551538;5.200845;4.776865;4.241268;4.711145;6.850742;5.745377;
4.949219;14.131767;9.297978;13.328349;14.768115;10.556667;11.142326;11.620394;10.818326;
4.953125;12.990204;10.465807;13.013840;15.455688;10.266031;12.659034;10.693471;10.942270;
4.957031;-4.116945;-2.645556;-4.630804;-3.207227;-3.858954;0.591510;-2.545964;-1.819712;
4.960938;-8.402233;-7.049379;-8.405868;-9.946326;-7.286285;-5.480761;-5.226274;-6.324415;
4.964844;3.084365;0.911203;5.379422;-0.032817;3.469296;-3.581724;4.863772;-0.321384;
4.968750;12.891500;10.979560;16.997213;10.502795;13.594839;0.915129;14.625564;6.874050;
4.972656;9.886567;12.480881;11.987353;10.061337;10.691156;4.581682;13.193560;7.951645;
4.976563;-6.038395;-0.558070;-8.548854;-5.926390;-4.987782;-2.602279;-1.674912;-2.996688;
4.980469;-13.863480;-6.989914;-17.081406;-15.136834;-10.194388;-10.231870;-8.699556;-9.984997;
4.984375;-9.097179;-0.891838;-9.810796;-9.453592;-2.775049;-7.767018;-2.658608;-5.429536;
4.988281;-0.108072;8.008020;0.303611;2.337466;4.031700;2.908670;6.059246;4.784024;
4.992188;2.349821;9.307208;2.661288;5.103431;3.325882;6.306396;7.387970;8.076510;
4.996094;-7.408444;-1.647944;-6.856743;-9.597589;-4.520412;-8.109887;-1.977885;-3.141973;
5.000000;-8.268288;-3.224556;-6.673392;-14.144245;-3.471929;-16.377436;-3.552750;-7.836483;
5.003906;-0.091661;4.550531;1.143984;-4.750831;2.786092;-10.340772;2.215933;-2.145598;
5.007813;1.864364;6.615144;1.745553;-0.563422;3.598726;-3.042370;3.660432;1.269632;
5.011719;-0.329893;4.481685;-0.352131;-1.365129;2.543985;1.304605;3.031559;1.912950;
5.015625;-2.471158;-0.056033;-2.699481;-2.592957;-0.462225;1.606507;0.662631;0.055260;
5.019531;4.941975;3.871808;4.127599;7.224412;2.550391;7.718679;4.096984;4.344527;
5.023438;9.000150;7.359983;8.392307;13.174676;5.156446;11.333780;5.758969;6.651103;
5.027344;-3.269697;-2.279271;-2.799838;-1.307891;-2.228120;0.389416;-3.214801;-3.371668;
5.031250;-11.971324;-9.265787;-9.597497;-12.814926;-6.031741;-8.932725;-8.109590;-9.991565;
5.035156;-7.529803;-7.954601;-4.632417;-8.525243;-2.035129;-7.008606;-5.170518;-6.676907;
5.039063;8.858618;3.123346;11.271922;9.775559;9.178710;7.309666;5.462527;6.532973;
5.042969;19.389696;11.893727;20.766432;21.486599;15.307298;18.786871;12.637548;16.313282;
5.046875;10.699953;5.998957;9.159300;12.045693;6.385330;14.410175;5.659148;11.255335;
5.050781;5.778154;4.454024;1.839406;7.720483;1.757425;12.422586;2.552307;9.568749;
5.054688;9.206738;8.565896;5.296494;12.351890;4.232800;14.652661;5.751986;12.711499;
5.058594;11.906479;11.857290;9.932539;14.396580;6.402880;13.719732;8.325502;13.573079;
5.062500;9.619218;11.642283;9.120539;9.543897;5.222481;8.188478;7.315601;10.620280;
5.066406;1.294901;2.661640;0.259275;-2.074421;-1.136865;-1.953710;0.031808;1.993134;
5.070313;4.632293;2.117706;3.410100;1.859577;2.037605;0.703280;1.641199;3.254442;
5.074219;13.625002;9.596519;12.943778;14.429095;10.286546;11.313482;9.405971;11.374629;
5.078125;12.225929;11.688389;12.403673;13.905226;10.441149;12.226904;10.457726;12.195086;
5.082031;3.728823;6.477507;4.070669;3.854990;3.358686;5.326691;4.388479;6.401597;
5.085938;-4.876162;-3.459435;-6.634639;-4.957578;-6.482605;-0.764169;-5.344104;-0.819428;
5.089844;0.278021;-0.245721;-1.419438;2.257363;-3.079235;5.156494;-2.808646;3.207314;
5.093750;9.508060;9.224836;10.989589;11.100183;7.463671;10.955350;6.504384;9.671414;
5.097656;9.080598;8.448646;11.180896;7.219130;8.477730;5.999615;7.301957;6.986241;
5.101563;5.135752;3.237454;4.136018;2.732217;2.816214;1.290439;2.679624;3.228218;
5.105469;-2.376390;-4.016175;-5.976886;-2.150232;-5.280767;-1.798546;-5.087536;-0.668631;
5.109375;-3.981497;-3.762850;-5.849450;-1.229723;-5.161912;0.964479;-6.082054;0.649445;
5.113281;-2.115496;-1.729120;-1.504891;0.991986;-2.579914;3.903568;-4.607821;1.752599;
5.117188;-7.290792;-9.509937;-7.923128;-5.394503;-8.653089;-1.303504;-10.980714;-5.297468;
5.121094;-9.391709;-13.966556;-11.958022;-7.509308;-12.109270;-3.721454;-14.213565;-8.326680;
5.125000;-5.519191;-10.664733;-8.192051;-3.537902;-9.418139;-1.147586;-10.916713;-4.791529;
5.128906;4.649458;0.340242;3.463331;6.101887;-0.425238;6.120518;-1.321475;4.254607;
5.132813;7.563841;4.481084;7.547027;8.194231;3.704895;6.836690;2.341919;6.265917;
5.136719;-7.681002;-9.722286;-8.512714;-7.851101;-7.628489;-6.662264;-10.070099;-7.653820;
5.140625;-16.022064;-16.588879;-17.332245;-15.072987;-14.301403;-12.439278;-16.477718;-14.348486;
5.144531;-9.838805;-10.194735;-10.096956;-8.443699;-9.303432;-8.129863;-10.230638;-9.126440;
5.148438;-0.768332;-3.319950;0.672265;-0.493176;-1.340440;-4.003314;-2.121627;-3.409227;
5.152344;0.631964;-3.898912;2.145680;0.992517;0.284053;-3.535900;-1.476665;-3.352145;
5.156250;-9.001994;-13.296141;-9.942585;-8.639983;-8.363018;-9.004841;-10.432972;-10.462266;
5.160156;-9.440309;-12.872302;-10.963087;-9.722094;-9.293797;-8.062688;-10.612474;-10.120940;
5.164063;-0.856773;-6.256425;-0.559144;-2.155625;-2.497617;-3.348264;-3.575490;-5.133566;
5.167969;3.771812;-5.440417;4.944458;1.623173;0.621334;-2.883622;-1.233638;-4.378581;
5.171875;1.150138;-8.264379;2.091139;-0.544749;-0.758230;-5.325175;-3.690849;-6.684383;
5.175781;-10.984829;-15.641553;-10.275681;-11.725513;-7.391522;-11.463648;-11.357293;-14.010084;
5.179688;-12.061560;-12.585033;-10.060134;-11.020329;-4.771975;-7.507255;-9.000536;-12.055068;
5.183594;-3.313671;-5.241617;0.167921;-2.224554;2.187365;-1.560276;-1.272786;-5.657578;
5.187500;-8.397016;-13.114697;-5.322794;-10.698707;-5.310486;-12.251792;-7.846222;-13.696709;
5.191406;-19.204718;-23.397854;-17.622097;-23.496056;-16.630596;-23.864367;-18.721149;-24.191582;
5.195313;-20.118895;-23.888187;-20.299021;-23.000566;-18.337372;-22.668539;-20.409586;-23.618666;
5.199219;-6.519750;-11.126960;-6.495162;-5.697788;-6.791505;-8.939542;-8.709487;-10.340556;
5.203125;2.464436;-1.777060;3.867782;5.814879;1.730560;0.602515;0.113332;-1.790671;
5.207031;-6.406490;-10.247330;-6.086625;-4.883636;-5.948164;-5.855618;-7.517618;-9.904618;
5.210938;-11.290530;-16.131863;-12.875183;-12.309044;-11.602230;-11.033119;-13.059145;-15.240639;
5.214844;-7.119032;-12.678700;-8.513399;-8.318238;-8.565566;-9.247600;-9.845325;-12.018038;
5.218750;-0.997136;-4.615516;0.035160;-0.321136;-1.441208;-3.333785;-2.810160;-5.213160;
5.222656;-0.939012;-1.803987;1.806021;0.475511;1.136640;-1.114927;-0.629720;-3.280164;
5.226563;-10.474045;-10.800235;-8.760459;-11.669507;-6.076672;-9.137083;-8.175994;-11.257509;
5.230469;-8.588045;-9.333655;-7.868811;-11.152349;-5.691977;-9.254163;-6.848122;-9.737060;
5.234375;3.524996;1.843383;4.269619;2.054666;1.793149;-0.660410;2.353892;0.608452;
5.238281;10.097691;6.572996;11.371511;9.693532;5.706757;4.861325;6.345061;5.575884;
5.242188;6.460683;2.290595;7.977982;6.368055;3.333452;3.077892;2.747976;2.059492;
5.246094;-5.399047;-7.037807;-5.673975;-5.927338;-5.931950;-5.761922;-6.360510;-6.982024;
5.250000;-6.501235;-2.706303;-8.124992;-5.804616;-5.894190;-5.087768;-4.783253;-4.799710;
5.253906;0.079077;7.580696;-0.695454;1.500871;1.466107;0.418886;3.261563;2.929746;
5.257813;1.482441;8.048409;1.822673;0.465919;3.136250;-0.852683;5.015139;3.374701;
5.261719;1.105989;5.605435;1.531108;-1.865119;1.480509;-2.186620;4.063024;1.886924;
5.265625;-1.939316;2.213877;-2.012727;-4.778076;-1.959402;-4.074651;0.613722;-1.503356;
5.269531;1.455565;6.767710;2.244635;0.657164;2.057002;-0.244177;3.485129;1.189814;
5.273438;7.682175;13.066642;8.992522;8.549574;8.220343;5.748224;9.133239;6.715109;
5.277344;4.529501;7.337417;4.121736;4.427313;4.116152;2.679118;5.401428;3.309394;
5.281250;-0.454031;0.508453;-1.945290;-1.335056;-1.366957;-1.928434;-0.130227;-1.279957;
5.285156;-1.406297;0.193924;-2.199440;-1.641612;-1.431172;-1.821048;-0.523597;-0.704384;
5.289063;8.741982;10.876609;9.428671;10.066231;7.719873;8.638848;9.694823;9.717627;
5.292969;15.626997;17.068838;16.793558;17.186186;12.711955;15.258144;16.497055;15.729630;
5.296875;1.428711;3.341804;1.203202;0.014225;0.572873;1.293081;4.416902;2.363052;
5.300781;-9.273042;-5.917948;-11.090043;-12.093258;-7.940296;-9.992397;-5.437170;-7.339176;
5.304688;-1.817925;-0.401272;-5.332655;-1.977193;-3.581278;-3.016015;-1.565539;-0.635041;
5.308594;10.329024;9.444000;6.086584;13.606358;4.683143;10.831565;7.228891;11.157542;
5.312500;6.962034;9.953501;4.189084;10.234264;5.074985;11.082037;7.242599;10.507902;
5.316406;-10.189196;-2.317487;-11.025003;-10.266092;-4.530192;-3.665696;-3.726897;-3.726270;
5.320313;-9.408215;-3.380260;-8.819019;-9.434590;-4.320596;-3.728635;-3.825957;-4.358525;
5.324219;3.447347;4.514795;3.988262;6.593604;2.874877;7.978545;3.644243;5.752150;
