Time (s);FP1;F3;Fz;F4;T3;C3;Cz;C4;Sampling Rate
0.000000;-10.808173;-13.913193;-11.784982;-11.268729;-8.058410;-11.049468;-10.286698;-11.788456;256
0.003906;-5.927869;-5.745646;-4.642447;-5.564273;-4.523319;-8.400479;-4.623589;-7.970594;
0.007813;1.651384;5.267121;4.271927;1.779906;1.671399;-2.874735;3.185220;-0.681823;
0.011719;-1.806483;0.324394;-0.374904;-4.728932;1.061017;-6.135636;1.390056;-3.153381;
0.015625;-6.207664;-6.519366;-5.274480;-10.234136;0.065244;-10.036417;-1.954095;-7.610370;
0.019531;-6.837777;-7.279390;-5.192055;-9.569180;-0.960314;-10.382059;-3.163195;-8.747410;
0.023438;-0.857179;0.844419;1.388952;-1.562736;1.494712;-4.530337;0.843262;-3.022773;
0.027344;3.339267;5.721233;4.749547;3.761541;3.401201;0.679530;3.532840;1.627695;
0.031250;-4.802058;-6.429630;-5.396009;-6.050212;-3.895562;-4.878393;-4.422785;-5.417120;
0.035156;-8.173141;-12.261260;-8.933368;-9.508059;-7.179478;-7.798555;-8.393349;-8.893883;
0.039063;-3.215469;-5.800110;-3.655262;-2.025083;-4.375972;-2.485329;-4.976699;-3.340233;
0.042969;1.588239;1.252114;0.782097;4.338597;-1.695737;4.044632;-1.188619;3.084081;
0.046875;1.480706;1.558974;0.807865;2.357497;-1.326838;2.515947;-0.824710;3.041559;
0.050781;-5.324827;-6.981725;-6.346372;-8.747534;-5.493311;-8.174199;-5.531809;-4.227137;
0.054688;-4.722857;-4.903533;-5.242063;-8.567717;-3.745152;-9.438697;-3.413101;-3.774236;
0.058594;-0.547778;2.101771;0.616715;-2.176111;0.836858;-3.507394;1.573649;0.334723;
0.062500;-1.419044;-0.065562;0.318573;-2.431658;1.084916;-1.556075;0.772125;-0.983983;
0.066406;-2.864198;-4.864162;-2.149688;-3.578193;0.679154;-1.454198;-1.539201;-2.863101;
0.070313;-6.254525;-10.449430;-6.992172;-7.444624;-1.562478;-4.122005;-4.781363;-5.565784;
0.074219;-2.113066;-4.127532;-2.503084;-2.873831;1.348519;-0.998012;-0.782806;-1.854830;
0.078125;5.410992;6.356285;5.844672;5.384137;5.670609;4.488583;5.610771;4.004881;
0.082031;3.921636;3.350903;3.739453;2.157611;3.056841;1.578410;3.588388;1.555508;
0.085938;-0.239161;-2.451683;-0.925108;-3.455916;0.459099;-3.178315;0.105089;-2.929844;
0.089844;-4.832642;-4.859653;-5.184161;-7.899565;-1.297601;-6.578384;-2.001653;-6.592833;
0.093750;-2.093599;3.363905;-0.987889;-2.633808;1.797171;-2.622761;1.776873;-3.117091;
0.097656;2.701338;10.896669;4.291997;4.642187;4.257833;2.609011;4.638921;1.609513;
0.101563;-4.558275;0.237083;-4.680198;-4.095427;-3.575296;-4.137812;-3.866712;-5.113209;
0.105469;-9.550211;-7.737825;-10.202642;-10.581195;-7.355707;-9.721560;-8.562614;-9.887394;
0.109375;-2.825093;-1.363722;-2.324441;-3.079491;0.189429;-3.466753;-1.346780;-3.122945;
0.113281;11.134566;13.432627;13.084741;13.037479;12.980133;10.780177;11.858283;10.885407;
0.117188;16.091249;18.387342;18.178610;19.129539;15.994770;16.394413;16.022133;16.474699;
0.121094;3.770650;3.778855;4.025304;4.499189;3.678524;5.338856;4.887712;6.129705;
0.125000;-1.144020;-1.017529;-1.419746;-1.660929;-1.059843;0.291424;0.583807;1.857530;
0.128906;6.720420;8.459810;7.248443;6.958216;5.700190;6.884675;7.295476;8.357307;
0.132813;14.946781;16.315762;15.251137;15.494564;11.693178;14.166165;13.824700;14.873363;
0.136719;16.515692;16.212385;15.129289;16.725977;11.354770;16.044039;14.645856;16.494722;
0.140625;8.476736;6.206603;5.192074;7.183946;4.387563;9.982608;7.621667;10.898860;
0.144531;6.952286;6.295422;4.649795;6.480664;4.561248;9.153990;6.372601;10.139063;
0.148438;9.911930;11.820130;9.738256;11.655911;7.466128;11.432184;8.605415;11.402416;
0.152344;5.933328;6.268031;5.852509;6.955753;2.867754;6.963106;3.900431;5.641015;
0.156250;1.690646;-0.884590;0.710496;0.625785;-1.062261;1.982045;-0.975731;0.428804;
0.160156;0.494636;-2.610138;-1.251204;-1.640019;-0.536771;0.862738;-1.049291;0.143040;
0.164063;7.674305;8.557946;6.690311;7.970528;7.212204;8.289004;7.802126;8.341009;
0.167969;12.569864;16.858496;12.650730;15.588760;11.624551;12.975409;13.369341;13.363906;
0.171875;4.460451;7.007208;3.676844;6.000303;4.082763;4.871791;5.231485;5.634355;
0.175781;-2.302416;-1.590934;-4.342305;-2.668481;-1.969358;-2.044229;-2.142332;-0.668817;
0.179688;-3.102737;-1.891726;-5.212239;-3.625077;-2.169488;-2.840947;-2.990276;-0.919756;
0.183594;2.426521;6.063615;2.351946;3.458091;3.389461;1.744042;2.430057;3.610855;
0.187500;5.636135;10.385941;7.587579;7.615370;6.903483;3.956056;5.843380;5.007760;
0.191406;-2.063320;-0.085511;-0.485367;-2.205670;1.195379;-2.512494;-0.080447;-2.255628;
0.195313;-4.910927;-4.432580;-3.654374;-6.167576;0.022263;-4.504737;-1.617614;-4.083229;
0.199219;-1.248221;0.356962;0.618774;-1.936159;4.099090;-2.206333;2.271417;-0.853401;
0.203125;2.005179;5.341659;4.499729;2.081728;6.103083;-1.226210;4.688665;0.715295;
0.207031;0.364225;3.367875;2.361476;0.331757;2.491369;-3.492910;1.621550;-1.835711;
0.210938;-8.083944;-9.133799;-8.218801;-10.852694;-6.598905;-10.191402;-7.332996;-9.095019;
0.214844;-7.479845;-10.161345;-8.497971;-11.092565;-7.291374;-8.627075;-7.587344;-7.847248;
0.218750;-0.212630;-0.829381;-0.601120;-1.641729;-2.246172;-1.193931;-1.269631;-0.619428;
0.222656;3.245111;4.250656;3.307462;3.417672;-0.176881;2.818685;2.140323;3.307229;
0.226563;3.092800;3.596531;2.654539;3.023755;-0.643080;2.994814;2.215757;3.820702;
0.230469;-1.540185;-3.547179;-3.760541;-3.400295;-4.311197;-0.759063;-1.879110;0.421088;
0.234375;1.647775;-0.183007;-0.955127;0.669637;-0.618221;2.897177;0.725117;3.401375;
0.238281;8.314752;8.476743;6.896865;9.588879;5.919344;9.045604;6.226114;8.221264;
0.242188;5.130937;4.914124;4.249986;5.718864;3.011063;5.145386;3.070999;3.942518;
0.246094;-1.659653;-3.188705;-2.983579;-2.579969;-3.358460;-2.190494;-3.001531;-2.783794;
0.250000;-6.567837;-8.921893;-9.017658;-8.357751;-7.022520;-6.921019;-6.611716;-7.057753;
0.253906;-0.990970;-1.391859;-2.851395;-1.624936;-0.886132;-2.458032;-0.746113;-2.567311;
0.257813;4.825988;5.978020;4.607203;5.061564;4.553856;1.314801;4.065187;1.046722;
0.261719;-4.016961;-5.585015;-4.276916;-6.013184;-3.583238;-7.443020;-5.141044;-8.047786;
0.265625;-11.648024;-15.092356;-12.347041;-13.996927;-10.633431;-13.099526;-12.771795;-14.398761;
0.269531;-9.813516;-12.715007;-10.665080;-9.887831;-9.905659;-9.306051;-11.272481;-11.253451;
0.273438;-1.201477;-2.044031;-1.656474;0.814974;-3.945338;-1.484997;-3.817920;-2.887115;
0.277344;4.075360;4.875865;4.023009;6.319699;0.573990;2.349817;1.587900;2.417225;
0.281250;-0.061482;-0.386297;-0.723423;0.040479;-0.681888;0.309223;0.297131;0.972023;
0.285156;2.175924;2.339075;1.714120;1.829636;3.479744;4.730406;4.413825;4.795169;
0.289063;7.180185;9.653254;7.429626;7.998974;8.121604;9.301677;9.318059;8.647418;
0.292969;5.334542;8.885951;5.875623;6.952051;5.945905;6.344834;6.828817;5.245422;
0.296875;-2.152084;0.075454;-1.889819;-0.958107;-0.421597;-1.354455;-0.711424;-2.465027;
0.300781;-11.750196;-12.912566;-12.972449;-13.279193;-8.388937;-10.465620;-9.289185;-11.049406;
0.304688;-6.950298;-7.786798;-8.743784;-8.714509;-5.318344;-6.012419;-4.997908;-6.345378;
0.308594;5.206014;7.657313;4.340842;5.960547;3.549192;6.449835;5.475050;5.622747;
0.312500;7.569052;11.015065;7.957653;9.373507;5.341996;10.385381;7.068880;9.071643;
0.316406;1.275141;2.925582;2.280122;2.639742;0.252583;5.293888;0.775964;3.811567;
0.320313;-7.445252;-9.125684;-7.360658;-7.409816;-7.842243;-2.650692;-7.454970;-4.459737;
0.324219;-1.845855;-3.752825;-1.867445;-1.057246;-3.760781;2.006387;-2.428276;-0.182051;
0.328125;9.151713;8.880566;10.039805;11.352949;6.192737;11.302025;7.904156;9.193945;
0.332031;3.920092;3.148386;4.889483;4.778723;3.238862;6.055088;3.707245;4.265775;
0.335938;-8.132321;-9.024094;-7.590774;-8.470352;-5.753016;-4.863021;-6.864977;-6.575099;
0.339844;-12.872447;-12.970042;-13.121185;-13.448877;-9.349139;-8.782516;-10.685650;-10.295555;
0.343750;-2.180924;-0.505407;-1.932505;-1.756527;0.058594;0.155936;-1.018505;-0.672466;
0.347656;10.756284;12.977276;12.002707;11.775361;11.883691;10.551093;10.391244;10.403322;
0.351563;9.844803;9.461532;10.140774;8.758119;11.565398;9.874718;10.155010;9.997632;
0.355469;6.100065;4.824511;5.483982;4.500181;7.851933;7.610942;7.725514;7.638430;
0.359375;3.474283;3.649940;3.214957;3.547336;4.783219;5.553786;5.380077;5.396231;
0.363281;3.097737;5.143328;3.903415;4.564981;3.951380;3.496158;3.764434;3.648568;
0.367188;1.907188;4.252283;2.873086;2.740050;2.868626;0.076228;1.981737;1.131958;
0.371094;-7.060720;-7.399604;-7.577276;-9.368197;-4.952919;-8.755248;-5.267360;-7.003416;
0.375000;-9.411304;-10.977736;-9.981541;-12.598969;-8.038701;-10.976161;-7.488215;-9.316322;
0.378906;-4.129845;-4.919750;-3.410777;-5.824136;-4.763443;-6.145829;-4.358562;-5.086590;
0.382813;-3.217720;-2.720223;-2.266782;-3.227679;-4.260427;-3.587223;-4.578523;-3.196953;
0.386719;-9.471761;-8.097905;-9.661562;-8.302481;-9.362145;-6.615766;-9.970337;-6.538991;
0.390625;-14.014493;-14.217668;-15.321144;-14.136598;-12.764600;-9.900449;-13.194397;-9.262125;
0.394531;1.157478;0.822922;1.131443;0.976204;1.124580;2.591642;1.072704;4.181205;
0.398438;20.277363;20.896894;21.654629;21.723484;18.158712;19.152906;18.252138;20.905224;
0.402344;20.845135;19.628698;21.495945;21.952309;18.479809;19.752123;18.061550;20.776606;
0.406250;9.496975;5.191592;9.375835;9.193809;8.042632;8.858486;6.750371;8.812609;
0.410156;-3.267076;-9.994462;-3.396299;-4.902865;-3.817709;-3.537255;-5.595885;-4.768604;
0.414063;-3.971711;-8.826235;-3.129148;-4.185621;-5.310417;-4.240467;-6.591146;-6.479547;
0.417969;-0.636317;-1.955961;0.602460;1.106856;-2.448645;-0.574735;-3.015660;-3.230176;
0.421875;-5.141819;-7.175118;-4.961231;-5.413602;-5.009419;-4.423115;-5.989528;-6.841566;
0.425781;-5.107185;-8.680604;-5.326241;-7.431369;-3.771007;-4.642122;-5.383280;-6.588618;
0.429688;-2.119402;-5.009281;-2.359561;-4.013724;-1.361600;-1.825347;-2.556071;-3.372358;
0.433594;1.028800;0.556033;1.130223;1.170445;0.558263;-0.004591;-0.268853;-1.137798;
0.437500;2.095763;2.334809;2.548066;3.093280;1.224398;-0.857892;0.012240;-1.549333;
0.441406;-4.718445;-6.669369;-4.998241;-5.581651;-4.527334;-6.957384;-5.801463;-6.972372;
0.445313;-9.872521;-10.898649;-10.436316;-10.716671;-9.206079;-10.481725;-9.900703;-9.329106;
0.449219;-13.091887;-10.512533;-13.518705;-12.250743;-12.520121;-13.516673;-13.010917;-11.285053;
0.453125;-11.994118;-7.047540;-11.835647;-10.247007;-11.680695;-14.065958;-12.655994;-11.512872;
0.457031;-4.869487;-0.451082;-3.959662;-3.567404;-4.240659;-8.112737;-5.533689;-5.887973;
0.460938;-1.599852;-0.612793;-1.228821;-2.767481;0.908636;-3.491371;-0.323996;-1.885440;
0.464844;1.851134;1.747609;2.168806;0.252880;4.899172;0.447530;3.494608;1.437946;
0.468750;3.875438;4.741903;5.011397;4.171831;5.437179;1.444097;3.708651;1.868908;
0.472656;3.507249;4.421322;5.151243;5.399722;3.224591;1.320823;1.842202;0.952652;
0.476563;2.751078;2.967191;3.825243;5.065944;1.094566;2.505760;0.921426;1.375734;
0.480469;-2.843022;-4.460873;-3.398285;-2.764338;-4.867836;-1.593519;-3.747591;-2.634341;
0.484375;-0.208502;-1.313843;-0.441278;-0.847115;-3.722376;-0.746095;-1.783731;-0.977312;
0.488281;7.502463;8.505589;8.291448;8.607658;2.280365;5.185873;4.445712;5.563627;
0.492188;5.177697;6.260746;4.888355;6.508786;1.014406;4.508861;2.893346;5.226436;
0.496094;-3.065116;-2.709394;-4.540702;-2.329299;-4.645981;-1.574861;-3.037149;-0.510509;
0.500000;-10.523490;-11.027546;-12.023807;-10.166380;-10.564130;-8.518757;-9.099867;-7.581990;
0.503906;-4.818186;-4.394116;-4.936840;-3.129084;-6.157457;-4.228186;-5.240395;-4.235147;
0.507813;5.908938;7.045532;6.739625;8.498977;2.979116;5.750757;3.037106;4.616059;
0.511719;5.552144;4.646296;5.497306;5.914020;3.839050;7.216819;3.417417;5.620351;
0.515625;3.318169;1.833672;2.929814;2.554993;3.453601;6.449749;3.189256;4.918272;
0.519531;2.396397;1.952967;2.466461;2.656834;2.975548;5.418481;3.218887;3.688262;
0.523438;5.315783;6.085151;6.131939;7.440578;4.853617;6.906544;5.382055;4.709976;
0.527344;7.344595;8.099875;8.462764;10.012884;6.867438;7.832427;7.098955;5.677995;
0.531250;-0.174770;-1.494534;-0.227136;0.053445;1.431914;1.229980;1.506862;-0.078944;
0.535156;-2.607335;-3.744368;-3.301491;-3.232697;-0.756046;-1.097977;-0.281077;-1.393901;
0.539063;1.893801;2.348036;1.471182;2.346203;1.648289;1.608069;2.148938;1.886875;
0.542969;5.641064;6.559375;5.401698;6.999042;3.188141;3.660876;3.473143;4.237995;
0.546875;4.175766;4.404042;3.393634;5.645962;1.237509;2.547720;2.081565;3.697508;
0.550781;-3.393123;-5.157404;-5.196535;-4.182147;-4.181679;-3.164387;-2.584063;-1.138522;
0.554688;-0.836215;-2.121835;-1.990698;-2.615889;-0.389707;-0.947099;1.096845;1.333277;
0.558594;5.938379;6.456226;5.437558;5.265235;5.196779;4.521420;6.032956;5.961905;
0.562500;3.137044;3.396394;1.906408;3.025711;1.072339;2.503618;1.526949;2.799850;
0.566406;-2.388258;-3.847078;-3.665802;-2.716145;-4.135147;-1.334672;-3.943099;-1.866875;
0.570313;-4.840115;-9.087680;-5.570842;-6.680395;-5.339798;-3.162842;-5.585878;-4.003811;
0.574219;2.335283;-2.042014;2.354844;1.121500;0.112771;2.170626;-0.275205;1.677395;
0.578125;8.418626;5.581221;8.499578;9.388427;3.157434;6.344170;2.884693;6.323771;
0.582031;4.256607;0.618965;3.502213;4.435828;-0.746368;2.438163;-0.976100;2.286518;
0.585938;-0.108281;-4.467275;-1.674779;-1.468178;-2.932542;-0.560735;-2.628850;-1.608694;
0.589844;-5.328255;-8.900523;-7.799450;-6.636953;-6.560878;-3.717039;-5.175443;-5.708279;
0.593750;-5.128165;-5.854969;-6.120895;-4.051577;-5.958853;-2.941569;-4.370877;-5.008248;
0.597656;-1.095803;-0.056870;0.869078;1.752950;-0.230495;0.355060;-0.469998;-1.201526;
0.601563;-4.488837;-5.871760;-2.438059;-3.836884;-0.095578;-3.131445;-2.711798;-4.352179;
0.605469;-7.039381;-9.955394;-6.400409;-8.293692;-1.499697;-6.761034;-4.414053;-7.847077;
0.609375;-7.170075;-8.891870;-6.475486;-8.195403;-2.454156;-8.487719;-4.019910;-9.353848;
0.613281;-3.612843;-2.830295;-1.080361;-3.277672;0.200686;-5.593550;-0.404962;-6.354668;
0.617188;0.071299;2.033294;2.803465;1.235850;2.419744;-0.719006;2.733610;-1.913351;
0.621094;-4.474815;-4.657288;-4.713531;-4.951673;-3.668253;-3.312444;-1.804770;-4.559847;
0.625000;-4.855921;-5.566556;-6.123253;-5.820706;-5.180976;-5.089124;-2.569122;-4.959841;
0.628906;-1.867301;-1.371179;-1.259092;-1.769550;-1.773054;-4.384550;-0.238549;-3.350082;
0.632813;-0.975161;-0.926538;0.922301;-0.245266;-0.198370;-2.849460;-0.371591;-3.259263;
0.636719;-1.740647;-3.248937;-0.529320;-1.304744;-0.976666;-2.218120;-1.783726;-3.804507;
0.640625;-8.756135;-10.309496;-8.942439;-10.382813;-6.284025;-8.868183;-6.446979;-8.473939;
0.644531;-9.007102;-6.003908;-8.325619;-10.220006;-4.704690;-9.729575;-4.234274;-6.563738;
0.648438;-2.133869;3.961579;-0.246885;-0.847147;1.640954;-2.806456;1.694007;0.425028;
0.652344;-0.046001;3.248236;0.900941;1.234138;1.721305;-0.007409;1.066764;1.627340;
0.656250;-2.737908;-2.793211;-2.978848;-2.944101;-2.208306;-2.208018;-2.512191;-1.160811;
0.660156;-6.905574;-8.177270;-7.403055;-8.201796;-5.414583;-4.719979;-4.915902;-3.313406;
0.664063;0.370040;0.967651;1.309337;0.975493;2.351648;3.865339;2.594021;5.099859;
0.667969;9.067514;11.172599;11.060216;11.870923;9.903204;11.970097;9.162436;12.480061;
0.671875;2.505553;2.987966;3.095268;3.537216;2.251819;3.867267;1.289140;4.504756;
0.675781;-5.866414;-5.800162;-6.562445;-6.593912;-6.279254;-5.881368;-6.529076;-3.903432;
0.679688;-7.678752;-6.618360;-8.011607;-7.889515;-6.959528;-7.661220;-6.631067;-4.631120;
0.683594;-2.116872;0.649316;-0.830916;0.000705;-1.325907;-2.018560;-0.792910;0.657235;
0.687500;0.731225;4.244693;2.548477;3.835380;0.703368;0.508484;1.388676;2.229101;
0.691406;-5.660800;-4.698843;-5.148251;-6.051439;-4.583384;-6.666514;-4.266567;-5.134370;
0.695313;-5.154441;-5.653824;-4.824887;-8.342156;-2.193588;-8.632086;-3.019181;-6.889777;
0.699219;0.285391;1.109294;0.771418;-1.902121;4.295746;-3.956491;2.606505;-3.076906;
0.703125;3.719723;6.904547;3.590042;4.315975;6.641369;1.302131;5.460204;0.590890;
0.707031;3.829519;6.944092;3.047802;4.918381;4.601134;2.403935;4.405650;1.159660;
0.710938;-1.351576;-2.231577;-3.020865;-3.376947;-1.002287;-2.680540;-1.228301;-3.251147;
0.714844;0.792035;-0.912225;-0.848440;-1.267803;0.376543;-0.302845;-0.051090;-0.581786;
0.718750;5.397051;6.549258;4.044432;6.146087;2.906768;5.451723;3.296129;4.373205;
0.722656;2.159466;4.599594;0.858202;3.493416;-0.798154;3.546044;0.070079;1.503896;
0.726563;-5.143891;-3.547117;-5.823437;-4.936739;-5.143852;-3.020823;-5.319807;-5.017568;
0.730469;-11.911074;-11.798041;-12.101912;-13.138581;-7.811980;-9.291545;-9.125032;-9.952864;
0.734375;-5.015874;-3.230791;-3.934385;-4.928456;-0.546992;-3.690741;-1.793350;-2.792039;
0.738281;7.333851;11.400704;9.861543;9.390251;10.025722;6.891567;9.282305;8.502948;
0.742188;8.952720;11.947559;11.559267;9.414763;11.656042;8.263261;11.126676;10.306205;
0.746094;4.058733;5.751983;5.667523;1.992847;7.508450;3.491477;7.397862;6.347721;
0.750000;-3.125701;-1.356366;-3.457322;-6.120579;0.563401;-3.408303;1.197232;-0.134180;
0.753906;-1.716788;2.338704;-2.690085;-2.334121;0.617216;-2.253330;1.772539;0.089237;
0.757813;4.495559;9.486135;4.356171;6.119128;4.911829;3.518346;6.124878;4.098680;
0.761719;3.271690;4.564735;3.856750;2.462984;3.569064;1.521297;4.094944;1.611806;
0.765625;1.987614;0.149319;3.763066;-1.375449;2.713619;-2.179322;1.878319;-0.744972;
0.769531;1.150761;-1.280862;3.502969;-1.549995;1.275517;-3.337977;-0.417397;-1.561470;
0.773438;1.795959;0.696817;4.073405;2.009475;-0.018788;0.458637;-1.424867;0.146653;
0.777344;0.562930;-0.111114;2.062877;1.869353;-2.484823;2.308745;-3.370770;-0.146134;
0.781250;-6.083709;-9.859865;-6.621686;-7.412067;-8.558089;-2.805021;-9.381260;-6.235534;
0.785156;-2.637855;-7.703746;-3.634134;-3.996314;-5.318262;1.087369;-6.374922;-3.512445;
0.789063;6.242988;2.781526;6.848784;7.944503;3.173872;10.917191;1.668956;4.748834;
0.792969;8.641582;7.035031;10.972410;12.353024;5.938456;13.974852;4.241838;7.224607;
0.796875;2.164360;0.705977;4.341660;5.366456;-0.153556;6.876357;-1.267753;1.197140;
0.800781;-9.434886;-13.779933;-9.767911;-9.058929;-11.586156;-5.274509;-11.664365;-9.249628;
0.804688;-5.099810;-9.988939;-6.980158;-4.546955;-9.385694;-1.701264;-7.862679;-4.973052;
0.808594;9.484544;7.417869;7.493890;12.746228;2.886172;12.276873;6.307002;9.130952;
0.812500;12.982659;13.834478;11.542244;16.196810;8.679487;14.723601;12.188923;13.303636;
0.816406;3.862145;6.503634;3.896986;4.189309;5.537256;3.348030;7.014152;4.929779;
0.820313;-8.261221;-6.242344;-7.477397;-11.236064;-2.350995;-9.886680;-2.248713;-6.934728;
0.824219;-4.260618;-1.225149;-3.080075;-6.295099;0.056425;-6.010094;0.698253;-3.794690;
0.828125;7.094663;12.626099;8.036545;7.965088;7.516629;5.295690;9.232852;7.272614;
0.832031;6.988280;11.923524;6.243167;7.109651;5.953640;5.264309;8.150517;8.370502;
0.835938;2.416906;4.916109;0.342870;0.596843;1.845297;1.012046;3.855633;4.463532;
0.839844;-0.141946;-0.031878;-2.101918;-2.808723;0.291968;-1.068654;1.566463;1.318391;
0.843750;5.351852;6.036814;5.782205;3.603756;6.272048;1.762469;6.224716;4.107376;
0.847656;8.264498;10.875370;10.553615;7.249077;10.321131;1.237793;8.885147;4.868777;
0.851563;-2.463342;-1.339542;-2.047241;-4.752378;0.920621;-7.838264;-0.761331;-4.582571;
0.855469;-9.855169;-11.308456;-11.771987;-11.824696;-8.174370;-11.621079;-9.116576;-10.862568;
0.859375;-8.954925;-11.515129;-10.959767;-9.354777;-9.803589;-9.410551;-10.661693;-10.499404;
0.863281;-2.825496;-4.022592;-3.287033;-1.834317;-4.844516;-3.477103;-6.334704;-4.865838;
0.867188;0.625468;0.301593;0.191449;1.924634;-2.326771;1.297704;-3.673177;-0.333112;
0.871094;-6.532485;-9.673914;-9.781389;-7.142272;-10.402396;-2.384269;-10.510443;-4.841496;
0.875000;-9.172514;-13.579573;-13.500083;-9.434519;-14.241339;-3.053962;-13.060416;-6.583169;
0.878906;-5.092577;-8.048213;-7.896348;-2.744384;-10.706519;1.111122;-8.916669;-3.433733;
0.882813;-0.460971;-2.007994;-2.202063;3.388784;-5.964656;5.620506;-3.992522;0.777496;
0.886719;0.926487;-0.412813;-1.264095;4.269843;-3.714805;7.007407;-1.826395;3.083652;
0.890625;-3.951623;-6.975380;-6.988234;-3.372671;-5.755493;1.952747;-4.689651;-0.244245;
0.894531;2.159815;-0.175122;0.655014;2.141483;2.781628;5.818144;2.399702;5.190024;
0.898438;14.688210;14.741866;15.599432;15.997921;16.587936;15.415468;15.033257;15.518909;
0.902344;13.865928;14.066321;15.329653;14.455821;17.329779;13.138485;15.481174;13.306147;
0.906250;2.454958;1.347442;3.192175;0.879014;7.150195;0.825382;5.918812;1.029839;
0.910156;-7.565080;-10.208143;-7.734001;-11.825146;-2.649231;-10.607903;-2.732556;-9.913957;
0.914063;0.276032;-0.406504;1.390408;-3.842908;3.760609;-5.889161;4.700446;-4.191122;
0.917969;14.764136;17.563354;18.171532;12.510214;17.422615;6.255876;18.741571;9.128918;
0.921875;14.487775;17.139244;17.619078;11.803565;18.171598;7.490371;19.109266;10.790885;
0.925781;6.313731;7.266605;7.288929;3.436483;9.907854;2.836535;9.958843;4.950248;
0.929688;0.049478;-0.446018;-0.483158;-1.824735;2.092378;-0.579727;1.418412;-0.459946;
0.933594;4.753777;5.083368;5.321235;5.056813;4.499607;4.287526;3.814705;3.388662;
0.937500;8.612372;10.238320;10.182150;10.253432;6.839253;7.594710;6.523905;7.198846;
0.941406;-1.785024;-2.138429;-2.026798;-2.125311;-3.088506;-1.516321;-2.930898;-0.703689;
0.945313;-3.542169;-5.074139;-5.000688;-4.684534;-5.154983;-2.864035;-4.014003;-1.029962;
0.949219;8.639297;8.144661;7.873625;8.653053;5.605503;7.739310;7.663781;10.276361;
0.953125;18.622351;19.637524;19.036175;19.477037;14.851441;15.505766;16.410439;18.493881;
0.957031;14.206493;15.014553;14.623097;14.887314;11.350141;10.786300;11.455723;13.519191;
0.960938;-3.434606;-5.122735;-4.607749;-3.869031;-4.374044;-3.596064;-4.749914;-1.862608;
0.964844;-9.781037;-10.549476;-10.958366;-8.478154;-10.817980;-7.010854;-10.356134;-6.155503;
0.968750;-2.141841;0.048773;-1.864702;1.647270;-4.333137;0.867652;-3.399254;1.435930;
0.972656;5.778228;8.172294;6.669482;9.106877;3.614524;7.805467;3.842115;8.059198;
0.976563;6.030688;6.253893;6.064564;7.705214;4.936275;8.049642;4.272386;7.288264;
0.980469;-3.903815;-6.722410;-5.393627;-3.977388;-3.264397;-0.395077;-4.565707;-2.554379;
0.984375;-5.805584;-8.086245;-6.015462;-5.419270;-4.584317;-2.852060;-6.633130;-5.846316;
0.988281;-0.972112;-0.712315;1.704558;0.003295;0.403385;-1.121806;-1.992561;-3.424518;
0.992188;-2.598900;-2.137082;0.207738;-3.662580;-0.666535;-6.056399;-2.249340;-5.834890;
0.996094;-3.701980;-3.820103;-3.751354;-6.129023;-2.620858;-9.243472;-2.568852;-6.171762;
1.000000;-1.127155;-1.306079;-4.397120;-3.786750;-1.653483;-6.501567;-0.171778;-2.331374;
1.003906;6.519558;9.082253;3.751617;4.550594;5.062428;0.904531;7.039190;4.610854;
1.007813;10.056516;15.650223;10.046532;8.074288;9.852242;3.324065;11.466680;6.793708;
1.011719;6.076218;11.035733;6.274244;2.201922;7.678313;-0.184004;9.530347;3.806093;
1.015625;6.716895;10.956833;5.530713;2.875657;6.898220;1.623446;10.712429;6.186180;
1.019531;7.028813;11.677358;5.548395;4.400987;5.055579;2.339122;10.250254;7.219117;
1.023438;8.505018;13.861244;8.753779;6.834591;6.185988;2.738590;9.760150;7.405763;
1.027344;9.522629;13.721376;10.801114;8.240568;7.969291;4.032404;8.947269;7.462193;
1.031250;0.373170;0.728479;-0.370884;-1.815583;0.149182;-1.086506;0.140768;0.551401;
1.035156;-6.072048;-6.959348;-8.465854;-7.377106;-5.895716;-4.283811;-6.057771;-3.889420;
1.039063;-5.785006;-5.492305;-7.556009;-5.593226;-5.485740;-4.453735;-6.477001;-4.104427;
1.042969;-2.844040;-1.501445;-2.648243;-2.366885;-1.920792;-4.013992;-3.978862;-2.744553;
1.046875;-2.821993;-1.825656;-1.270620;-2.658591;-1.292248;-4.787180;-3.362566;-3.254786;
1.050781;-11.196890;-13.044066;-10.365360;-12.313241;-9.313704;-10.139793;-10.500716;-10.295931;
1.054688;-11.734285;-14.223172;-11.191690;-11.931972;-10.571133;-8.079199;-11.710032;-10.337182;
1.058594;-3.333881;-4.280346;-2.418634;-1.661876;-2.471550;-0.120980;-4.888258;-2.437699;
1.062500;1.419724;0.634952;1.849704;2.727877;2.863722;3.059971;-0.285883;2.252397;
1.066406;-1.528074;-3.619874;-1.920925;-1.468290;0.400449;0.011667;-2.197662;-0.548413;
1.070313;-9.889575;-14.333325;-10.852956;-11.111215;-7.246943;-6.400437;-9.444663;-8.678672;
1.074219;-5.885700;-9.917006;-5.710473;-5.737478;-4.339583;-2.440795;-6.641044;-5.913327;
1.078125;4.297352;2.009990;5.812696;6.523496;3.681992;5.428705;1.534554;2.900839;
1.082031;2.155114;-0.845896;2.935818;3.453693;0.998495;2.285814;-0.535277;1.487332;
1.085938;-6.237914;-9.988034;-7.125775;-5.984601;-7.517957;-5.629599;-8.021192;-5.904905;
1.089844;-13.203895;-16.873898;-15.373816;-12.888102;-14.742221;-12.146379;-14.491080;-13.020000;
1.093750;-8.804601;-10.405161;-10.095206;-6.994666;-10.751388;-9.491020;-10.843847;-10.403600;
1.097656;-0.739701;-0.346123;-0.520963;1.940614;-2.429237;-3.055420;-3.064528;-3.239228;
1.101563;-3.717570;-4.395535;-3.981231;-2.897310;-3.911428;-3.921834;-4.223481;-4.236979;
1.105469;-7.019321;-8.087123;-7.602715;-6.925175;-6.123382;-4.754373;-6.277397;-6.397887;
1.109375;-6.613053;-6.938592;-6.130414;-5.962119;-4.715522;-4.495862;-5.796015;-7.100500;
1.113281;-2.339777;-1.369030;0.022398;-1.207809;0.258013;-2.103191;-1.630525;-4.550439;
1.117188;-1.027737;0.847942;2.106333;-0.712777;2.186114;-1.949099;0.492429;-3.729716;
1.121094;-11.007950;-10.638047;-9.592527;-13.454334;-6.700721;-11.025561;-7.843194;-12.244027;
1.125000;-14.991286;-15.074697;-14.957187;-16.674994;-11.929046;-13.983399;-12.634394;-15.100163;
1.128906;-10.466129;-9.855560;-10.260654;-8.367805;-10.082540;-8.636833;-10.732047;-9.823066;
1.132813;-6.293051;-5.526143;-5.184391;-2.195511;-7.355005;-3.839826;-8.234633;-4.862443;
1.136719;-4.465702;-4.966211;-3.338411;-1.278823;-6.168772;-1.427263;-6.624742;-2.676282;
1.140625;-4.784805;-9.077345;-5.420710;-4.786568;-7.149614;-0.796238;-6.723094;-2.854093;
1.144531;3.830465;-1.518410;2.634128;3.412247;-0.227428;6.664404;0.339359;4.464466;
1.148438;10.241446;7.519944;9.602510;12.215743;5.482532;11.381903;5.546283;10.314332;
1.152344;2.670553;2.361959;2.012903;5.548096;-0.436101;4.290953;-0.700848;4.543262;
1.156250;-7.543849;-7.484855;-8.440664;-5.570902;-9.195413;-4.880547;-9.350058;-4.365767;
1.160156;-13.566349;-16.132854;-15.354925;-13.320871;-15.442926;-10.372824;-15.239030;-10.730922;
1.164063;-5.770594;-9.175526;-7.796733;-4.424209;-9.671424;-3.710272;-9.254372;-5.098758;
1.167969;5.611897;3.470645;3.691388;9.034831;0.252329;6.101864;0.631947;4.311162;
1.171875;3.813693;0.940210;1.394563;5.775467;-1.132454;4.585794;-0.500970;2.778009;
1.175781;-1.086536;-4.473767;-3.096216;-0.745407;-5.340849;0.981298;-3.937627;-1.087964;
1.179688;-0.754191;-2.783375;-2.303277;0.014361;-4.526127;2.710460;-2.201964;0.084011;
1.183594;9.148970;10.452519;7.578726;11.870398;3.932222;12.287255;7.638067;9.704021;
1.187500;16.539532;19.685520;14.683666;19.353140;10.422588;18.248158;15.051964;17.049177;
1.191406;7.691456;8.989668;5.655759;6.876722;5.682066;9.355556;8.565173;9.800758;
1.195313;-2.314318;-1.254427;-3.179709;-4.326980;-0.031642;-0.193665;0.164576;0.227087;
1.199219;-6.077157;-3.145813;-5.916913;-5.618210;-3.950977;-3.114951;-4.177809;-4.443630;
1.203125;-3.585173;1.151859;-2.901409;-0.573462;-3.277606;-0.051032;-2.933127;-2.848428;
1.207031;-1.150340;3.361409;-0.353676;1.569535;-0.228611;1.899054;-0.554157;-0.727672;
1.210938;-6.885144;-5.799680;-7.211797;-7.854495;-3.487628;-4.356185;-4.907630;-5.994509;
1.214844;-6.091887;-6.099516;-6.632454;-8.400206;-2.624110;-4.859506;-4.255657;-5.948159;
1.218750;0.914683;2.834549;1.379985;0.146396;2.994657;1.069867;1.473239;0.213132;
1.222656;4.152457;7.345528;5.773992;4.620107;5.868136;4.784278;4.168142;4.489669;
1.226563;3.816562;5.742026;5.935596;4.489917;5.191126;5.593018;3.852810;6.122388;
1.230469;0.485678;-1.456945;1.289843;-0.510490;0.825395;2.984438;0.674609;4.199414;
1.234375;4.949955;2.696330;4.550227;4.431762;3.057500;6.343317;3.685192;7.761662;
1.238281;10.545249;11.403010;9.766616;12.446582;7.510473;10.768147;7.876199;12.072104;
1.242188;6.515637;8.599017;5.706093;8.029690;5.148113;6.218452;5.393352;8.394718;
1.246094;1.043570;2.482200;0.365201;0.405720;1.341361;-0.795278;2.597360;3.263080;
1.250000;-1.817253;-2.281347;-3.460027;-4.136833;-2.022224;-4.491482;0.305144;-0.169461;
1.253906;4.932423;4.738059;3.195921;3.981186;2.193773;2.572441;4.343566;4.769801;
1.257813;12.191829;13.439925;11.084909;13.532168;7.945035;10.984576;9.353303;11.171403;
1.261719;7.930698;7.024023;5.110343;9.255673;3.582798;9.685772;5.064233;8.309141;
1.265625;3.752707;0.229358;-1.635353;5.989663;-2.087948;9.083936;0.087482;4.955447;
1.269531;0.917242;-1.808184;-4.219647;3.466662;-4.414082;5.989101;-2.263955;1.349329;
1.273438;0.830107;2.559897;0.282816;0.979936;-0.174634;-2.013774;1.062357;-1.252036;
1.277344;1.096096;4.749172;4.241739;-1.306786;3.596825;-8.358742;4.164179;-2.922933;
1.281250;-6.053753;-6.546967;-4.452051;-9.190596;-3.140755;-11.032427;-2.786573;-8.752851;
1.285156;-7.781346;-10.094409;-7.746723;-9.294868;-5.415445;-6.758135;-5.593983;-9.506104;
1.289063;-1.520692;-0.980525;0.327242;-3.139550;2.404354;-3.226610;1.245682;-4.857503;
1.292969;6.207592;9.331832;10.735674;3.640289;11.744418;-0.244343;9.868008;1.031765;
1.296875;6.066738;8.162462;10.980780;4.793097;11.534900;2.289337;9.436244;1.766964;
1.300781;-7.027472;-8.630654;-3.543968;-9.148351;0.081129;-6.563593;-2.904632;-8.756861;
1.304688;-11.783228;-13.536088;-7.500238;-16.043993;-1.986972;-15.465944;-7.065525;-14.190304;
1.308594;-5.364993;-5.559975;0.901061;-9.515415;5.068214;-14.554536;-1.373534;-10.178610;
1.312500;-0.861515;-1.706811;5.468468;-2.905341;7.716931;-7.604072;2.421317;-5.047117;
1.316406;-2.209124;-3.791452;2.285186;-2.334576;4.573601;-2.865374;1.545647;-2.869758;
1.320313;-8.946009;-10.670448;-6.592572;-10.114214;-1.837193;-7.707394;-3.794877;-6.721585;
1.324219;-4.865395;-4.226475;-2.194377;-6.068637;1.070228;-7.037495;-0.337833;-3.577282;
1.328125;5.649317;8.800811;8.705750;6.902673;7.885538;2.501173;8.258132;5.805518;
1.332031;6.681438;8.899418;7.200314;9.090093;5.691792;7.965129;8.256053;8.703921;
1.335938;3.106335;3.632890;1.051158;4.986161;0.403211;7.004495;3.862001;6.663939;
1.339844;0.641843;0.452031;-1.801809;0.741037;-1.813441;2.375969;1.147550;4.023149;
1.343750;8.495580;10.280237;7.795554;8.904841;6.157710;7.090791;8.270341;10.898469;
1.347656;16.254854;19.624615;16.050314;18.701941;12.741241;15.394851;14.341076;18.580320;
1.351563;8.663948;9.259191;5.740322;10.554623;4.128090;11.107743;5.501042;11.923078;
1.355469;0.759874;-0.905693;-3.639837;1.398748;-4.192189;3.835001;-2.758699;3.495611;
1.359375;0.433213;-0.541683;-2.048542;0.451504;-3.371387;1.533358;-1.810653;1.704575;
1.363281;6.284739;7.425941;6.716064;6.746244;3.820465;5.594472;5.087334;5.901926;
1.367188;8.005019;9.065589;8.649200;8.940237;5.907351;7.706728;6.605139;6.810653;
1.371094;-1.988798;-4.888394;-3.818767;-2.586650;-3.325817;0.385714;-3.169518;-1.871540;
1.375000;-4.977634;-9.672504;-6.874647;-5.585073;-5.662544;-1.732499;-6.168910;-4.232329;
1.378906;0.284277;-2.920268;1.139459;0.758077;0.741796;1.263054;-0.654004;-0.144212;
1.382813;2.573416;1.254310;5.876568;2.955384;4.984897;0.682620;2.755807;0.722979;
1.386719;-1.786813;-2.801403;1.918249;-2.165055;2.362641;-3.777750;-0.342238;-3.661372;
1.390625;-11.395232;-14.739273;-9.117127;-13.466865;-5.786701;-10.372755;-8.551646;-11.700588;
1.394531;-9.051483;-12.406722;-6.881172;-10.464707;-3.507483;-7.181178;-5.962786;-9.408856;
1.398438;2.656103;1.516303;5.455762;3.068157;7.049804;2.150106;5.189669;0.722301;
1.402344;9.764688;9.577737;11.842798;9.454228;12.844512;7.259574;12.109077;7.085741;
1.406250;9.186046;9.830759;10.252215;7.270736;11.178424;6.395859;12.204181;7.138895;
1.410156;1.133747;2.878567;1.559140;-2.037966;3.334731;-1.392657;5.943318;0.916560;
1.414063;2.835188;7.554368;3.914461;0.979555;3.996368;-1.527612;7.444654;2.935187;
1.417969;10.961144;17.994247;12.608508;10.878278;9.504924;4.549439;13.346127;10.226593;
1.421875;7.358259;13.067697;7.817292;5.691711;4.778201;1.839482;8.829918;7.337508;
1.425781;-0.356427;4.122126;-1.351885;-3.418762;-2.938479;-3.339312;1.394778;1.169593;
1.429688;-2.233228;2.180299;-4.229012;-4.371782;-5.039410;-2.465488;-0.246578;0.617168;
1.433594;7.259313;13.148518;5.809439;8.287472;3.235146;8.410935;8.020779;9.784253;
1.437500;12.948555;19.510721;12.536972;16.012505;8.581666;14.604811;12.267386;14.358484;
1.441406;0.883620;4.510363;-0.120188;1.635137;-1.683578;3.477146;0.574563;2.205606;
1.445313;-8.264452;-6.400241;-9.824901;-8.995625;-10.025417;-5.519445;-8.171208;-7.253291;
1.449219;-6.700415;-4.204637;-8.049142;-6.006172;-8.822104;-3.994284;-6.554083;-5.934814;
1.453125;-0.331507;3.348913;-0.688933;2.226263;-2.577826;1.621220;-0.246988;-0.297657;
1.457031;1.827781;4.748675;2.062146;3.668701;0.369032;1.782937;1.652423;0.197734;
1.460938;-6.930594;-8.114719;-7.881364;-8.813070;-6.115417;-7.671141;-6.997453;-8.847944;
1.464844;-11.129567;-13.441109;-12.463675;-12.967637;-8.961302;-10.948046;-11.484738;-12.426632;
1.468750;-9.328827;-9.281210;-9.790610;-7.812131;-7.252250;-8.181719;-9.776816;-10.694720;
1.472656;-7.334882;-5.895539;-6.691458;-4.866664;-5.324058;-7.163948;-7.704585;-10.036581;
1.476563;-6.138898;-4.918066;-4.626633;-5.309629;-3.009209;-7.732728;-5.980473;-9.400018;
1.480469;-9.362371;-9.596919;-8.150792;-11.161137;-4.019472;-11.228324;-7.171189;-10.879786;
1.484375;-4.865517;-4.376300;-3.108041;-6.571979;0.427814;-8.207571;-1.909923;-6.542028;
1.488281;3.019528;5.341472;5.994414;2.657723;6.626831;-2.615618;5.392212;-0.937436;
1.492188;2.652840;5.126029;5.242279;1.247246;5.605426;-3.148489;5.265707;-1.667583;
1.496094;-0.763095;1.316342;-0.021327;-3.757603;1.777227;-5.423746;2.191379;-3.401881;
1.500000;-5.039940;-3.931465;-6.214090;-9.054892;-3.105080;-8.724584;-2.113598;-5.914540;
1.503906;-0.583667;1.754041;-1.036119;-2.935257;-0.317113;-4.728500;1.188785;-1.607210;
1.507813;7.598373;11.665964;8.860805;7.838827;6.045383;3.492635;7.902360;6.302759;
1.511719;6.403552;8.530776;6.876944;6.214842;4.330882;4.310507;5.983267;6.649092;
1.515625;2.517126;2.514093;1.059113;1.664940;-0.195320;1.955183;1.210163;4.031860;
1.519531;-0.929552;-1.273309;-3.496836;-1.183594;-4.408720;-0.409898;-2.846096;1.099452;
1.523438;1.319499;2.586715;-0.258253;3.082657;-2.875783;3.129884;-1.573513;3.387384;
1.527344;3.045421;4.886117;2.598120;6.176538;-1.096809;7.056475;-1.042707;5.627121;
1.531250;-5.851306;-7.875432;-7.849029;-4.496188;-8.935265;1.306021;-10.318054;-2.016463;
1.535156;-10.499158;-15.848955;-14.171779;-9.326380;-13.828547;-1.898468;-15.830847;-6.801052;
1.539063;-6.694122;-12.305243;-9.861305;-3.023390;-10.700900;2.186204;-12.640958;-3.467235;
1.542969;1.551274;-2.939965;0.634117;7.084175;-2.171519;10.116180;-4.367272;4.370648;
1.546875;5.269305;0.557734;5.677453;9.639437;3.108504;12.060734;-0.373359;6.784759;
1.550781;-4.593482;-11.940675;-5.431709;-4.232220;-3.800588;0.132864;-8.890807;-4.062828;
1.554688;-9.456529;-16.472624;-10.677794;-9.997501;-7.164654;-6.730197;-12.513812;-10.024950;
1.558594;-5.376818;-9.703938;-5.250904;-4.179854;-3.262026;-3.989760;-7.433472;-7.205102;
1.562500;-3.749084;-7.064676;-2.588941;-2.757743;-1.607119;-3.694970;-4.925253;-6.732797;
1.566406;-6.524792;-10.263813;-5.350318;-7.447338;-3.258217;-8.352306;-6.780048;-10.101950;
1.570313;-12.676333;-17.840422;-12.051908;-16.109234;-7.141250;-15.326588;-10.739635;-15.312431;
1.574219;-8.601719;-12.689347;-6.857206;-11.964775;-2.855097;-12.570139;-5.641789;-11.486011;
1.578125;0.260148;-0.921502;3.003830;-1.818612;4.346037;-5.189485;2.523045;-3.843823;
1.582031;-0.163930;-0.021787;0.940591;-2.547070;3.309615;-4.458120;2.233459;-3.187904;
1.585938;-3.529505;-3.153060;-4.546794;-5.715706;-0.359658;-5.255436;-0.379776;-4.105429;
1.589844;-5.243877;-5.649190;-7.284703;-7.064663;-3.307245;-5.115254;-2.118401;-4.059793;
1.593750;2.218540;2.962586;1.047014;2.048397;1.088723;2.570282;2.923162;3.145671;
1.597656;10.063306;12.077127;9.690814;11.575056;5.824207;10.756566;7.819896;10.324565;
1.601563;5.059745;4.155631;3.389710;5.079138;-0.025091;7.119627;2.134184;5.985502;
1.605469;0.589137;-3.026909;-1.935217;-0.033674;-4.489666;3.194287;-2.409550;1.759225;
1.609375;2.119545;-1.501054;0.236552;3.194990;-2.870574;5.439261;-1.456556;3.167732;
1.613281;7.864130;6.617201;7.772270;11.264128;2.573286;11.987164;3.303014;8.864600;
1.617188;7.090149;7.222656;7.940818;11.072713;1.883467;11.713920;2.444156;8.783300;
1.621094;-7.030820;-10.226105;-7.911759;-5.407815;-10.882729;-0.555291;-10.556952;-3.470828;
1.625000;-12.926162;-18.453306;-14.854617;-11.583890;-16.432581;-4.938570;-16.968372;-8.888683;
1.628906;-7.205074;-11.413107;-8.437731;-4.080338;-11.234134;0.434406;-12.592683;-3.971661;
1.632813;1.180538;-1.092926;0.232587;4.963633;-3.303311;7.416108;-4.705982;3.581568;
1.636719;6.525101;4.033219;4.450406;9.561391;2.206790;12.333331;1.001680;8.606816;
1.640625;1.658674;-3.350331;-1.800164;2.567433;-0.560017;8.417003;-2.016331;4.114714;
1.644531;-0.427866;-4.577892;-2.256397;0.556582;-0.214506;4.973276;-2.091529;0.674651;
1.648438;1.736321;0.515694;3.157421;3.793937;4.274717;3.391141;1.928572;0.563133;
1.652344;0.525094;-0.302613;3.671066;1.113939;5.389793;-1.161841;2.480618;-1.794608;
1.656250;-3.332662;-4.969907;-0.268302;-4.763796;2.694488;-6.215569;-0.059538;-5.817749;
1.660156;-10.225496;-12.419469;-8.464326;-12.657892;-4.285977;-11.945401;-5.622310;-11.904016;
1.664063;-5.987777;-5.960981;-4.067654;-6.780735;-2.283399;-8.117510;-1.872787;-7.936521;
1.667969;5.422715;7.731688;8.192699;5.976098;6.709155;1.245341;7.933393;2.712411;
1.671875;7.487814;8.856072;9.051880;6.156829;8.293203;3.201335;9.671325;5.896530;
1.675781;4.616990;5.443712;4.334445;2.190855;5.130016;1.725375;7.039553;4.842963;
1.679688;1.778035;2.989333;0.641543;-0.117925;1.383668;0.129507;4.052163;3.138516;
1.683594;7.325446;9.779815;6.942541;7.259546;4.405863;5.204237;7.636452;8.082398;
1.687500;13.100620;16.068306;12.725612;14.276728;7.404753;10.397915;11.125756;13.353189;
1.691406;5.032880;5.754602;2.543741;4.375098;-0.737130;3.835701;2.977329;6.935878;
1.695313;-1.780754;-2.351888;-4.897934;-3.209499;-6.187472;-1.446683;-3.381545;1.434842;
1.699219;1.293367;1.191033;-0.829815;1.604483;-1.917404;2.640171;-0.111437;4.700769;
1.703125;10.414013;11.820425;8.734682;13.370731;6.963657;12.443322;8.467563;13.455967;
1.707031;11.602614;13.152903;9.372459;15.410095;7.596100;14.229411;8.611767;14.341393;
1.710938;-2.965449;-4.555285;-5.876584;-1.826427;-4.962013;0.838294;-5.462497;0.217514;
1.714844;-10.450799;-12.557155;-11.988228;-10.132834;-9.814222;-6.801997;-11.604970;-7.956079;
1.718750;-5.594031;-5.131317;-4.965731;-3.802732;-3.730749;-3.424921;-5.467374;-4.803238;
1.722656;-0.124845;1.638770;1.615490;1.853104;1.632376;0.572589;0.499200;-0.798529;
1.726563;-0.761986;-0.226017;0.809961;-0.260857;0.790692;-0.693511;-0.146110;-1.891731;
1.730469;-9.472707;-11.508645;-9.112093;-11.665564;-6.611291;-9.362805;-7.752734;-9.762770;
1.734375;-9.908848;-10.647557;-9.224840;-11.786784;-6.831246;-11.644896;-7.873958;-10.780444;
1.738281;-3.067729;-1.032018;-1.464450;-2.610117;-1.817345;-6.900238;-2.043599;-5.390624;
1.742188;0.347735;1.773850;1.266451;0.728592;0.758421;-3.300786;0.962190;-1.663819;
1.746094;2.170653;2.568801;2.033962;1.338982;4.069740;-0.278830;3.691663;1.928413;
1.750000;-0.152759;0.558615;-0.868099;-1.978937;3.992768;-1.533411;3.562809;1.608916;
1.753906;2.933338;6.027940;3.410961;2.362723;6.723408;0.749456;7.181912;4.360182;
1.757813;9.238961;13.710715;10.952850;10.066257;10.621493;5.867463;11.597185;9.129111;
1.761719;6.004088;8.306817;6.312711;5.036176;5.533237;3.476202;6.906004;6.104816;
1.765625;1.398720;2.244565;-0.195138;-0.828132;-0.297714;-0.250538;2.193176;2.072363;
1.769531;1.269848;1.940924;-1.156937;-0.294179;-1.363862;-0.495585;2.260023;1.708753;
1.773438;9.232138;10.559156;7.378875;9.507752;4.584418;6.152174;8.387557;7.910776;
1.777344;14.528897;15.643064;13.399127;14.927946;8.756914;10.069468;11.643809;11.257058;
1.781250;5.693888;3.864781;3.877637;2.402903;2.042724;1.428364;3.723200;2.534283;
1.785156;0.109686;-2.464684;-2.003654;-4.645160;-2.007907;-3.665026;-0.574462;-2.520189;
1.789063;2.443680;2.006222;0.948802;-0.298999;-0.156015;-0.480402;1.732467;0.313078;
1.792969;7.582777;9.715435;7.325883;6.964292;4.483462;5.778961;6.259008;6.252464;
1.796875;8.643726;11.805441;9.134727;8.719872;6.731646;8.099359;7.794141;8.536032;
1.800781;-0.842569;0.399350;-1.297563;-2.026869;0.027378;0.250348;0.413031;0.912146;
1.804688;-3.535332;-2.381078;-4.054206;-4.025147;-1.955066;-2.660696;-1.877681;-1.583904;
1.808594;2.186053;5.152373;2.791139;3.623039;2.732794;1.902880;2.618008;2.992090;
1.812500;4.798567;7.865860;6.105610;6.252996;5.598216;4.096813;4.759746;4.619687;
1.816406;1.137100;2.164575;2.550471;1.599257;3.847638;0.212150;2.081183;0.227559;
1.820313;-8.159273;-10.365176;-6.728033;-9.236647;-2.883301;-9.221314;-5.021266;-9.270131;
1.824219;-6.211763;-7.667174;-3.172880;-6.433144;-0.409058;-8.502440;-2.424344;-8.338797;
1.828125;3.163754;5.284163;7.083389;4.701491;7.892179;-0.325383;6.472239;0.375757;
1.832031;3.853603;7.105049;6.125677;4.109668;7.963080;0.105006;7.998936;1.893664;
1.835938;-0.758814;1.852089;0.125882;-2.361146;2.989089;-4.796025;4.599527;-2.128216;
1.839844;-5.438111;-3.910490;-4.880193;-7.834340;-1.838086;-9.055456;-0.235086;-6.467557;
1.843750;0.395991;3.142109;1.920619;-0.583269;2.746468;-3.442374;3.111742;-1.105327;
1.847656;7.553513;11.708891;9.906384;8.292494;8.383363;3.288086;8.316566;5.691379;
1.851563;0.685146;2.481817;1.742790;0.581509;1.373194;-1.780631;2.065189;0.251149;
1.855469;-6.686523;-7.131552;-7.332325;-7.137084;-6.544260;-6.844991;-5.027360;-5.618545;
1.859375;-6.482424;-6.871746;-8.021105;-6.355167;-7.515595;-6.186458;-5.851612;-4.943677;
1.863281;0.745248;2.524678;-0.157092;1.840930;-1.577589;-1.162017;-0.101004;1.292416;
1.867188;3.138729;5.968933;3.207778;4.293786;0.543807;-0.336277;2.125030;2.812313;
1.871094;-6.952538;-7.228121;-7.389381;-8.162280;-8.026523;-8.406884;-6.330150;-6.437731;
1.875000;-9.520946;-11.642482;-10.082760;-10.811335;-9.824391;-9.016524;-8.580597;-9.034921;
1.878906;-3.198504;-3.902260;-2.897189;-2.566423;-3.338329;-2.980496;-3.065643;-3.978905;
1.882813;1.066947;2.625430;2.731692;2.251369;1.717184;0.043687;1.131901;-0.508613;
1.886719;-1.438055;0.450637;0.590763;-0.863060;0.101833;-1.953589;-0.783243;-2.035144;
1.890625;-11.547577;-12.630126;-11.423605;-12.451288;-9.283519;-8.516585;-10.206982;-9.522894;
1.894531;-12.166934;-13.855935;-12.880992;-12.339621;-10.518335;-6.645830;-11.563219;-9.345931;
1.898438;-3.048512;-2.719774;-2.913280;-1.434265;-2.428193;2.464915;-3.518928;-0.897146;
1.902344;4.658177;5.674934;5.241436;5.805998;4.999203;9.120540;4.318777;6.965433;
1.906250;6.782394;7.609107;7.211278;6.105746;7.738163;9.482162;7.645544;9.362018;
1.910156;0.786917;1.066096;0.653385;-1.903325;3.456964;2.303002;3.368005;3.358146;
1.914063;3.349750;5.224199;3.980574;1.902401;5.457145;3.537876;5.041593;4.612849;
1.917969;12.007099;15.251580;13.632735;12.903735;11.249224;10.779568;10.698012;11.324353;
1.921875;8.805294;9.817368;9.360165;8.345904;7.040349;7.311195;6.165561;7.006194;
1.925781;-0.665143;-1.484034;-1.859197;-3.283134;-1.124974;-2.221260;-2.649890;-2.959904;
1.929688;-6.842360;-7.777871;-8.804369;-10.094095;-5.775838;-8.893220;-7.707482;-8.773678;
1.933594;0.137284;0.687681;-0.330525;-0.908830;0.260415;-3.075234;-1.327143;-2.042113;
1.937500;7.789835;9.130062;8.746370;9.287655;6.486802;5.008140;5.691541;5.496643;
1.941406;-0.705001;-1.665636;-0.658916;-0.517686;-0.247075;-0.929554;-0.740016;-1.263002;
1.945313;-8.036755;-10.459388;-8.167751;-9.267194;-5.452889;-7.575706;-6.378411;-7.897814;
1.949219;-5.280520;-7.605747;-4.279884;-6.096325;-3.115193;-6.148008;-4.510805;-6.475629;
1.953125;3.344445;2.584519;5.124241;3.527761;3.429740;0.897578;2.192508;0.573510;
1.957031;6.084243;7.495064;7.249536;6.078365;5.690596;3.294733;5.166770;4.024514;
1.960938;-4.967618;-3.762083;-5.337588;-7.215404;-3.393043;-6.084948;-3.471308;-3.911510;
1.964844;-9.960764;-8.825974;-10.234735;-11.617964;-8.621549;-9.889528;-8.830100;-7.874354;
1.968750;-4.652716;-3.147121;-4.810326;-3.369913;-6.914011;-4.051488;-6.813927;-3.817045;
1.972656;2.793315;4.613343;1.517625;5.315622;-2.985397;3.468503;-1.755798;2.899872;
1.976563;8.233755;10.358500;6.116161;9.876884;2.208786;8.270173;3.879040;9.054516;
1.980469;6.321501;6.738369;3.290972;5.885769;2.669174;7.116680;3.488053;9.019403;
1.984375;8.664536;9.066158;5.799040;9.164518;5.396218;11.055752;5.550732;11.819176;
1.988281;13.141965;15.404019;11.712427;15.836478;9.406572;16.657167;9.290768;15.665255;
1.992188;10.880348;13.293226;10.728536;12.687707;9.070090;14.474921;7.996389;13.469091;
1.996094;5.725078;7.125638;5.987572;5.814966;6.543368;8.933289;4.698541;9.006420;
2.000000;-1.409790;-1.308679;-1.957583;-1.987822;0.714118;2.776962;-0.351027;2.846850;
2.003906;1.784173;3.217695;1.402280;3.083724;2.687612;6.044490;3.046384;4.686061;
2.007813;9.928848;13.101737;10.724514;12.818217;9.830872;12.865310;10.633639;10.366115;
2.011719;4.928461;6.405564;6.320692;5.985601;6.809217;7.668336;7.087561;5.445521;
2.015625;-6.188000;-6.716462;-4.339982;-6.799172;-2.413191;-3.566850;-2.701527;-5.159305;
2.019531;-12.318105;-14.203881;-10.408670;-13.501381;-9.087259;-11.062357;-9.794750;-13.078944;
2.023438;-4.646640;-6.235898;-2.135379;-4.693199;-3.874981;-5.594385;-4.764314;-8.740523;
2.027344;4.339163;3.726072;7.092103;5.660468;3.818484;2.708539;3.398213;-0.779446;
2.031250;-1.374481;-3.373733;-0.383659;-1.879587;-1.046969;-1.635242;-0.130689;-4.126959;
2.035156;-7.366282;-9.865006;-7.645896;-8.795640;-7.847482;-6.748660;-5.151640;-8.252525;
2.039063;-8.663569;-10.044348;-8.866009;-8.443357;-10.983089;-7.416601;-8.159319;-8.991762;
2.042969;-6.884443;-7.556708;-6.255657;-4.859073;-9.487119;-5.575815;-9.200362;-7.386266;
2.046875;-4.394676;-6.789547;-3.413366;-2.621671;-6.005036;-3.820833;-8.335166;-5.412486;
2.050781;-7.043291;-13.665627;-7.335109;-8.100134;-7.397543;-6.456100;-10.352880;-8.142876;
2.054688;-4.339672;-11.246798;-5.085308;-5.256075;-5.055386;-4.038569;-7.249252;-6.325526;
2.058594;0.729591;-2.587425;0.899348;2.584996;-0.487014;0.671367;-1.782808;-1.709672;
2.062500;0.990693;0.214707;2.420360;3.342463;0.983948;0.883571;0.132384;-0.538503;
2.066406;-1.904411;-2.314649;-0.038125;-1.480190;-0.512522;-2.226632;-0.872344;-2.462400;
2.070313;-8.645706;-9.861225;-8.390105;-10.625241;-6.681415;-8.462370;-6.404754;-8.125265;
2.074219;-5.987470;-4.738812;-6.342173;-6.547972;-4.569186;-5.797471;-4.417952;-5.139512;
2.078125;1.842443;6.301720;2.530222;4.111125;3.475936;1.833437;2.912032;3.258262;
2.082031;0.426355;3.948085;1.428931;1.915654;3.607834;1.329979;3.050757;3.598626;
2.085938;-5.572788;-4.385043;-4.912642;-5.771434;-1.551452;-2.906248;-1.338977;-1.147542;
2.089844;-10.943575;-11.502839;-10.893713;-11.468823;-6.628423;-5.611580;-6.388807;-6.222143;
2.093750;-5.708224;-5.943177;-5.273061;-4.238706;-2.114616;0.410503;-3.258554;-2.848077;
2.097656;1.136788;0.722343;1.940939;3.958588;3.607253;5.877433;0.785030;1.146935;
2.101563;-5.342596;-9.284229;-5.791518;-4.667274;-3.036356;-1.258422;-6.549980;-6.731549;
2.105469;-10.953680;-17.396254;-12.071005;-11.697316;-8.940330;-7.599199;-12.317237;-13.774176;
2.109375;-7.306556;-13.898631;-7.421882;-8.068580;-5.394201;-5.861989;-8.769752;-12.015155;
2.113281;3.726040;-0.782246;5.790018;3.866209;5.239891;2.693979;1.849069;-2.344176;
2.117188;7.131607;4.647029;9.608038;8.331339;7.913634;6.335434;5.306746;2.213010;
2.121094;-5.533348;-9.471034;-6.154527;-5.963608;-4.974564;-3.588367;-6.162324;-7.221416;
2.125000;-10.173017;-15.072780;-13.078946;-11.779143;-11.245349;-9.214451;-11.220233;-11.216420;
2.128906;-2.701408;-6.789704;-5.243004;-3.324659;-6.151878;-5.305011;-5.666627;-5.004274;
2.132813;5.146518;2.169160;3.894741;5.844059;0.401767;1.450020;0.497960;2.411162;
2.136719;6.827057;3.838845;5.818757;6.937561;2.637785;4.564219;1.977837;4.599192;
2.140625;-0.073294;-4.971930;-2.442229;-2.800312;-2.294063;-0.487243;-2.875215;-1.008828;
2.144531;0.003282;-3.373282;-2.452882;-1.940235;-2.304276;-0.434139;-1.453116;-0.646038;
2.148438;4.679925;5.018862;3.143183;6.123413;1.148156;3.735187;3.089269;4.084361;
2.152344;3.935182;4.801676;2.617663;5.767318;0.934896;3.031380;2.221850;4.057524;
2.156250;0.137294;-1.225411;-1.383298;0.028732;-1.463760;-1.417261;-1.245715;0.251323;
2.160156;-5.198340;-8.923513;-7.172890;-7.146175;-5.619982;-7.418679;-5.377491;-5.290714;
2.164063;0.462355;-0.689576;-0.264503;0.006301;0.181380;-2.582188;0.872902;0.128461;
2.167969;8.889628;12.329900;9.829348;10.173042;9.171726;5.971130;9.490166;9.258770;
2.171875;3.437894;7.053047;3.598904;2.677653;4.965835;2.251931;4.727622;5.679509;
2.175781;-6.794278;-5.018021;-8.175667;-9.507770;-5.352087;-6.807990;-5.091129;-3.432243;
2.179688;-12.088521;-10.987249;-13.648381;-14.526162;-11.297400;-11.082060;-10.002320;-8.185970;
2.183594;-3.311275;-0.008105;-3.091904;-2.413769;-4.065100;-0.585675;-1.919497;0.476772;
2.187500;7.868259;12.359081;9.096553;11.849984;5.860647;12.914495;8.328254;11.599475;
2.191406;3.886567;4.654313;3.767787;6.186523;3.404005;10.143855;5.056346;7.672228;
2.195313;-2.344177;-4.781718;-2.912763;-2.270416;-1.174554;1.887114;-0.755839;-0.677135;
2.199219;-1.730276;-4.586696;-1.132528;-1.725463;-0.999911;-0.109358;-1.116361;-2.792975;
2.203125;5.432744;3.370636;7.507927;7.188871;4.318023;5.941474;4.054398;2.903751;
2.207031;7.281356;4.489416;9.337909;10.161683;5.391968;8.002957;4.685872;4.567048;
2.210938;-3.895905;-10.154825;-3.557333;-3.335382;-4.367422;-2.628077;-5.833425;-5.999356;
2.214844;-6.698683;-13.392544;-6.334600;-7.217028;-6.572769;-6.715095;-8.555494;-9.096467;
2.218750;1.301841;-2.367763;2.396273;2.306527;0.574417;0.613134;-1.257482;-0.923978;
2.222656;6.979172;6.130906;7.221036;9.419538;5.225902;7.653679;3.937679;5.928040;
2.226563;3.614244;3.624657;2.664712;6.036382;1.850826;4.440869;0.823142;3.268851;
2.230469;-8.148396;-9.563663;-9.956830;-8.304703;-8.649501;-9.283246;-9.712322;-7.993287;
2.234375;-7.059376;-7.053881;-8.517936;-8.442181;-8.003792;-11.250573;-8.504261;-7.609573;
2.238281;5.707143;9.480392;4.993421;4.611758;3.708615;-0.395602;4.439933;4.130625;
2.242188;12.160914;17.782841;11.703515;10.244543;11.250289;6.043510;13.068750;10.972796;
2.246094;9.286222;15.240631;8.757187;6.871412;9.598434;4.146088;12.585939;9.302656;
2.250000;0.000247;5.149235;-1.552307;-2.710384;-0.278521;-3.356309;4.339248;1.373840;
2.253906;1.178624;7.377772;-0.113468;-0.028623;-0.809802;-1.990305;4.281719;2.241277;
2.257813;9.817178;17.740688;9.825521;10.355734;8.386785;5.620445;11.598269;10.093588;
2.261719;9.080575;15.946032;8.620396;8.193907;10.055337;5.271472;11.463496;10.488074;
2.265625;4.488536;10.221091;2.797226;2.259321;5.733474;2.315600;7.623082;7.741450;
2.269531;1.299904;6.617539;-1.001495;-0.503757;1.799943;1.535390;4.868190;6.091364;
2.273438;5.401483;11.826999;4.309830;5.750131;5.495089;6.192407;8.880009;9.811235;
2.277344;9.026912;16.097641;9.428027;10.292044;9.260606;8.180181;12.456162;11.872740;
2.281250;2.867991;6.428308;2.498925;1.160455;3.859985;1.442586;6.536820;5.362690;
2.285156;2.113382;2.364950;0.973732;-0.921214;2.650583;1.382060;4.427860;4.402276;
2.289063;6.004158;5.790325;5.395927;5.241906;5.895414;6.863446;6.624949;8.253849;
2.292969;9.588494;10.564067;9.949543;12.438688;8.808473;11.403828;8.906065;11.535310;
2.296875;9.934325;10.549183;10.307378;14.288198;7.860266;11.300804;8.069036;10.905411;
2.300781;0.140195;-2.693802;-0.497020;1.481478;-1.932076;1.835979;-1.670546;1.192676;
2.304688;-4.983406;-8.553150;-5.009795;-5.035684;-6.388417;-2.922279;-7.020985;-4.157693;
2.308594;-2.018331;-3.835508;-0.965874;-0.483477;-2.467386;-1.061885;-4.537437;-2.866431;
2.312500;0.775151;0.010628;1.926787;2.626251;1.702079;-0.536004;-0.895907;-2.066153;
2.316406;-0.589532;-0.830262;0.455878;-0.307905;1.167481;-2.896104;-0.487285;-3.840839;
2.320313;-6.983153;-8.526153;-6.499736;-9.467752;-5.345849;-8.389235;-5.999892;-9.053837;
2.324219;-2.901178;-4.637034;-2.171733;-5.403085;-3.332418;-5.705038;-3.983508;-5.733122;
2.328125;5.120980;5.060153;5.894109;4.725362;3.118133;0.596858;2.375897;1.408105;
2.332031;3.372047;4.732061;2.979874;3.673816;2.374511;1.263245;2.646260;2.040646;
2.335938;0.093505;2.462255;-0.668306;0.437149;0.366309;1.609500;2.203911;1.857905;
2.339844;-2.580434;-0.649820;-3.081358;-2.999264;-1.822791;-0.151665;0.460555;0.515273;
2.343750;0.951545;4.209717;1.560763;1.211082;1.045657;0.763222;2.752179;2.833208;
2.347656;6.130679;11.757662;7.855498;7.402557;5.701738;3.478341;7.130505;6.430877;
2.351563;3.121021;8.116863;4.104257;2.238554;3.277467;1.072843;4.917156;3.857134;
2.355469;-0.976717;2.936070;-1.392392;-3.664279;-1.113744;-1.423551;1.201014;1.070740;
2.359375;-4.627528;-1.088617;-5.969803;-7.067294;-5.508976;-3.977763;-2.209533;-1.439861;
2.363281;-1.108044;3.226846;-1.689048;-1.342800;-2.385433;-1.138001;1.169939;1.270681;
2.367188;5.552383;9.636436;6.249153;6.623777;4.631850;4.311841;7.269092;5.783316;
2.371094;1.317503;1.530248;1.522757;-0.452954;1.807434;1.347042;3.179309;1.069244;
2.375000;-2.471312;-4.656767;-2.976159;-5.361498;-1.794456;-0.288885;-1.235373;-2.245748;
2.378906;-0.162817;-2.428161;-1.012182;-0.215717;-0.746687;2.734884;-0.773587;0.066453;
2.382813;3.944043;1.774157;3.609176;6.951903;2.252677;5.559322;1.450446;2.950259;
2.386719;2.372385;-0.717564;3.407571;5.464414;1.444852;2.885500;-0.173101;0.232847;
2.390625;-7.947557;-14.369221;-6.597013;-8.386234;-6.293718;-6.662604;-8.654053;-9.441271;
2.394531;-8.442591;-15.933938;-6.872840;-9.670752;-6.172794;-7.569209;-9.168212;-10.029017;
2.398438;-1.752394;-7.595854;-0.366869;-0.266859;-1.124601;-1.891359;-4.151253;-4.253440;
2.402344;-0.865277;-5.918705;-0.969260;1.953546;-2.033555;-0.132758;-4.139484;-3.125078;
2.406250;-3.609550;-8.940647;-5.147915;-2.034662;-5.738775;-1.559783;-7.061126;-4.818454;
2.410156;-8.124312;-14.508969;-10.471579;-9.626654;-9.858994;-5.731798;-11.437617;-8.472524;
2.414063;-3.826438;-8.558937;-5.127247;-5.474768;-6.011876;-2.841402;-7.685350;-5.260380;
2.417969;2.322934;0.537176;2.913165;2.741318;-0.168882;2.513952;-1.281881;-0.209690;
2.421875;-1.917409;-3.251787;-0.712941;-1.780819;-2.323387;0.135016;-3.367258;-3.026965;
2.425781;-6.816715;-7.844554;-6.010296;-7.690813;-5.085585;-3.344692;-6.328820;-5.769142;
2.429688;-7.810641;-7.646821;-7.535295;-9.596175;-5.360756;-6.516057;-6.153162;-6.038180;
2.433594;-0.942338;2.467547;0.959604;-1.847981;0.551169;-4.807692;0.812567;-1.399195;
2.437500;3.516728;9.869325;7.287176;4.468671;4.293353;-2.229411;5.908032;1.138557;
2.441406;-4.558453;0.830022;-2.186994;-4.567745;-1.766662;-6.793119;0.353218;-5.144550;
2.445313;-8.097632;-3.743273;-7.583826;-9.743797;-2.484533;-8.080762;-1.635761;-6.729253;
2.449219;-4.081394;0.832851;-3.486661;-6.011532;2.665136;-4.579258;2.220276;-2.472440;
2.453125;2.958433;9.177690;5.041397;3.260507;7.939153;2.412642;7.749600;4.265928;
2.457031;6.854205;12.455287;9.417318;8.925368;9.811498;7.665059;9.856698;8.614926;
2.460938;0.642016;2.623862;1.526336;-0.423128;4.234542;2.400723;3.607149;3.446609;
2.464844;-2.996647;-1.447732;-2.799159;-6.314479;0.612527;-2.720971;0.410028;-1.069998;
2.468750;-2.875540;0.741341;-1.995618;-4.430866;-0.695968;-3.336598;0.753331;-2.398677;
2.472656;-1.532112;1.917544;0.100549;-0.642874;0.186322;-0.541300;1.498269;-1.664045;
2.476563;-0.636631;-0.301547;1.187952;0.664483;2.136026;1.514255;0.758992;-1.219147;
2.480469;-6.822771;-11.075815;-5.782593;-7.453687;-2.341464;-4.142110;-6.225962;-7.125700;
2.484375;-6.860656;-12.005261;-5.261845;-6.546476;-3.003738;-4.696213;-7.393846;-7.668078;
2.488281;-1.147478;-5.177606;1.609388;1.934896;-0.104899;0.345599;-3.874240;-3.194427;
2.492188;0.025572;-4.633890;2.112163;3.254965;-1.386350;1.830280;-4.515386;-2.167976;
2.496094;-2.164249;-7.792989;-2.031549;-0.129085;-4.265052;0.222312;-7.021860;-3.419204;
2.500000;-7.271752;-14.198755;-8.524122;-6.933221;-7.864438;-4.914335;-10.733682;-7.519702;
2.503906;-3.097729;-8.758997;-2.620723;-2.235018;-3.043356;-2.860295;-5.934156;-4.422205;
2.507813;4.504525;1.696332;7.148001;6.770185;4.084957;2.654015;1.845538;1.779365;
2.511719;0.752632;-1.735175;2.441469;1.489183;1.475323;-0.819912;-0.049266;-0.926582;
2.515625;-6.051160;-8.561496;-5.950132;-6.920095;-3.307817;-6.896286;-4.487194;-5.911230;
2.519531;-9.689229;-11.172235;-9.794567;-11.003928;-6.077820;-10.847108;-6.976904;-8.896450;
2.523438;-2.468583;-1.273275;-1.493063;-2.761093;-1.049201;-5.674865;-1.223527;-3.269822;
2.527344;7.679097;10.687351;8.656185;8.137940;6.217010;3.068816;7.284674;5.717465;
2.531250;5.498982;7.032718;4.370388;3.903573;3.675417;2.054442;5.875536;5.251881;
2.535156;2.589978;3.662144;0.604291;0.029362;0.533884;0.002119;3.201128;3.609925;
2.539063;4.103186;6.398492;2.588974;2.505135;1.102889;1.558836;3.480705;4.932416;
2.542969;7.246420;11.643435;5.868034;6.920045;3.724453;4.533135;5.720048;8.030519;
2.546875;5.427717;11.205660;3.234996;4.973175;2.420386;2.809035;4.854620;7.397997;
2.550781;-4.289208;-0.402058;-8.231278;-7.406969;-6.101951;-5.454279;-2.440344;-0.198520;
2.554688;-3.645648;-0.490986;-7.705229;-6.739715;-5.866337;-3.721791;-1.119711;0.613873;
2.558594;4.930451;9.245167;2.631077;4.627591;2.215123;5.513312;6.775090;7.747054;
2.562500;8.141224;12.041395;7.851682;9.475914;6.413701;10.135578;9.512841;9.524691;
2.566406;3.592879;4.313500;3.970929;5.136365;2.932751;8.113471;4.518533;4.212909;
2.570313;-6.776757;-11.026154;-7.500166;-6.032293;-6.524604;0.668137;-6.099049;-5.479380;
2.574219;-5.456985;-10.781866;-5.564142;-3.290042;-5.615325;1.469449;-6.418511;-4.684811;
2.578125;4.227621;0.444460;6.073772;7.805230;2.858659;7.602914;1.089465;2.742022;
2.582031;7.373316;2.833505;9.083972;8.756978;5.367959;8.214173;3.555792;4.483302;
2.585938;5.674683;-0.288550;5.332557;5.091230;3.033137;6.594931;1.889987;3.266803;
2.589844;-0.378778;-6.831670;-2.630600;-1.101400;-3.157009;2.457450;-3.866268;-1.089403;
2.593750;0.131490;-4.120633;-1.249591;1.138933;-3.013623;2.916296;-4.101912;-0.896419;
2.597656;5.106704;2.429178;4.943740;6.872759;1.245835;5.929102;-0.542277;2.362764;
2.601563;1.861634;-3.162614;-0.035822;1.065454;-2.161533;2.004204;-3.999025;-0.914645;
2.605469;-2.804072;-8.705758;-6.348606;-4.766654;-6.831101;-2.406379;-8.056896;-4.716199;
2.609375;-5.535114;-9.031187;-8.580128;-6.371084;-8.434735;-4.876130;-9.535913;-6.391830;
2.613281;-1.276847;-0.647074;-2.374283;-0.281141;-3.001639;-1.711722;-4.530411;-2.069434;
2.617188;3.665084;6.681241;3.546325;5.051636;1.955834;2.052203;1.060782;2.696396;
2.621094;-2.073480;-0.708206;-3.263500;-3.207208;-3.579028;-2.834375;-2.672072;-1.441228;
2.625000;-4.207580;-3.732514;-5.651925;-5.920171;-5.927657;-4.512471;-4.189561;-2.778468;
2.628906;0.495015;1.614968;-0.512778;0.710921;-2.291270;0.140268;-1.282542;1.048273;
2.632813;6.581381;8.978091;5.682351;8.587502;2.694954;6.688231;3.239395;6.241194;
2.636719;6.577019;9.970872;5.617266;8.415651;3.945126;6.940469;4.780277;6.393313;
2.640625;-5.096939;-3.263544;-6.446635;-6.101989;-3.662201;-4.390141;-2.988984;-4.091043;
2.644531;-7.522911;-5.894371;-7.688857;-8.927198;-3.946154;-7.361365;-3.952584;-6.799317;
2.648438;1.789633;4.619509;3.767582;1.691542;5.089112;0.119106;4.406644;1.226827;
2.652344;7.026739;9.617678;10.028725;6.483223;10.285550;3.661053;8.957020;6.295667;
2.656250;2.690102;3.937059;4.721641;1.787060;6.130167;0.482171;4.448475;3.154058;
2.660156;-8.339493;-9.725592;-8.962743;-9.378273;-5.157260;-6.832293;-6.690151;-6.477772;
2.664063;-6.908229;-8.784428;-8.278613;-6.354998;-5.739628;-4.674467;-6.999099;-6.284583;
2.667969;2.662162;1.787399;2.532262;4.835700;2.398870;2.930559;0.760153;1.158941;
2.671875;3.310988;1.639801;3.868305;4.079916;4.523221;2.700256;1.940138;1.537807;
2.675781;-0.820186;-3.404338;-0.286001;-1.708764;2.075680;-1.880935;-0.770200;-2.502860;
2.679688;-5.751199;-8.330264;-6.022727;-7.360149;-2.778245;-7.270667;-4.891389;-7.236781;
2.683594;-2.609647;-2.501336;-3.021423;-3.053641;-1.873255;-4.957726;-3.066192;-4.222540;
2.687500;2.457961;4.621512;2.088222;2.856221;0.685251;-0.081426;0.006160;0.482473;
2.691406;-2.667811;-2.920236;-4.018673;-4.343192;-4.295209;-3.731616;-4.836856;-4.206205;
2.695313;-5.939029;-7.877016;-7.509211;-8.164782;-6.615934;-6.053909;-6.901714;-7.060617;
2.699219;-3.049564;-3.908281;-4.217432;-3.898596;-3.443708;-3.258630;-3.482955;-3.762081;
2.703125;4.264437;5.768023;4.096631;4.998487;4.052862;3.025727;3.671690;3.430390;
2.707031;5.930041;8.134304;6.730933;7.103586;7.198434;3.917322;6.281607;4.981901;
2.710938;-5.866507;-6.353723;-5.730677;-7.171480;-2.255816;-7.084860;-3.096781;-5.949556;
2.714844;-11.488949;-13.064299;-11.977426;-13.998466;-7.987549;-12.982958;-8.846119;-11.997312;
2.718750;-6.567724;-7.066253;-7.108377;-7.880133;-4.748239;-9.607717;-6.568361;-8.361886;
2.722656;-0.500707;0.524208;-0.649132;-0.398741;0.226053;-4.480406;-1.893372;-2.745221;
2.726563;-0.462332;1.502962;-0.185492;-0.163758;0.385756;-3.723403;-0.569858;-1.810998;
2.730469;-8.716234;-8.284041;-9.236987;-10.457975;-6.129234;-9.568520;-6.521739;-7.739516;
2.734375;-7.179979;-6.499249;-7.876771;-8.906186;-3.997539;-6.801898;-4.863953;-5.400243;
2.738281;1.000663;3.942951;1.060927;1.166062;3.275044;2.276841;2.488236;2.337427;
2.742188;0.000739;3.488144;1.227438;0.532058;2.863748;3.361416;2.282219;1.992941;
2.746094;-8.355498;-5.977089;-5.295261;-8.645337;-2.349381;-4.892321;-4.182598;-5.855006;
2.750000;-17.394846;-17.503292;-13.902741;-19.646452;-8.737942;-16.329290;-12.111217;-15.659496;
2.753906;-11.883284;-12.398694;-8.885077;-13.528273;-5.935791;-13.083000;-8.514650;-12.204494;
2.757813;0.373952;0.508033;3.117988;0.906226;1.793540;-1.040576;1.606974;-1.394270;
2.761719;2.619503;0.443322;5.110565;1.972237;3.271777;1.312669;4.270316;0.444245;
2.765625;2.089868;-2.485932;4.138997;-0.031333;2.909358;-0.140378;3.722542;-0.673136;
2.769531;1.479894;-3.162620;1.658316;0.339876;0.574665;0.088445;1.511071;-0.542237;
2.773438;5.329534;3.729306;4.334770;7.343683;1.411986;5.076384;3.262855;4.200281;
2.777344;8.584741;9.439260;8.101077;11.919368;3.292276;7.760563;5.907004;7.576176;
2.781250;2.221380;1.906197;1.542785;2.510233;-1.303089;1.583131;1.205210;2.729784;
2.785156;-0.026944;-0.104489;-0.941008;-1.224832;-1.831306;0.754053;0.182177;2.586370;
2.789063;4.145408;5.764375;3.604929;4.243072;2.396537;6.148317;4.183046;7.577969;
2.792969;10.972144;13.425017;11.611858;12.661273;8.261567;12.072325;9.956670;12.885497;
2.796875;14.121744;16.151287;15.691620;16.236425;11.846772;13.871430;13.135948;14.666480;
2.800781;7.592997;8.143067;8.141604;7.994782;7.854703;8.258250;8.914663;9.603116;
2.804688;7.268085;9.509457;7.056995;7.662161;8.111883;7.962375;10.114660;10.251871;
2.808594;12.922114;18.149708;12.900043;14.221588;12.825188;11.915314;16.007309;15.088015;
2.812500;15.241533;21.066360;15.539159;15.980874;15.291039;13.240214;18.240841;16.490831;
2.816406;11.881228;16.401794;12.122352;11.962671;12.568318;10.201946;14.508279;12.999075;
2.820313;2.123210;4.334305;1.294122;1.302571;3.191590;1.415520;4.874681;4.010216;
2.824219;2.756400;5.935770;2.040915;3.128192;2.530468;1.816996;4.887949;4.255953;
2.828125;11.059048;16.364071;11.137628;13.264789;9.113310;10.229062;11.989448;11.989882;
2.832031;12.343540;16.086542;11.948608;13.825373;10.033625;13.156046;12.366331;13.872004;
2.835938;8.151780;8.461498;6.796987;8.425327;6.101526;10.114152;7.210872;9.795509;
2.839844;1.197771;-1.486733;-0.849868;0.706256;-0.157641;4.072787;0.113378;2.586696;
2.843750;2.798382;0.983289;1.933777;3.823340;1.128708;5.979086;1.665746;3.487633;
2.847656;7.049884;6.960720;7.621951;9.932977;4.548493;9.648733;5.735243;7.223999;
2.851563;2.108813;-0.483875;1.983841;3.421728;0.266307;4.203496;1.159579;2.347724;
2.855469;-2.145465;-7.023741;-3.166695;-2.874087;-2.623358;-0.396641;-2.493643;-2.441127;
2.859375;-3.385052;-7.341669;-4.604756;-4.755767;-2.768214;-1.670773;-2.782166;-3.820772;
2.863281;1.646234;0.487064;1.123745;1.996650;1.513830;1.800503;1.535301;0.660101;
2.867188;6.734987;5.549706;6.680925;8.717039;5.104682;4.613097;4.644625;4.350665;
2.871094;0.203963;-4.494071;-0.611490;0.587058;-0.599275;-1.118998;-1.408578;-1.525339;
2.875000;-5.244722;-8.701509;-6.067555;-4.906799;-4.229896;-3.769442;-4.484533;-4.063849;
2.878906;-4.279245;-2.735745;-4.832561;-2.304516;-2.981692;-1.703245;-2.230752;-0.785626;
2.882813;0.626245;4.273537;0.183197;3.080764;-0.232606;1.293107;1.251261;3.116905;
2.886719;1.567674;3.113517;1.137727;3.394780;-0.663394;1.246745;0.355012;2.207686;
2.890625;-7.774724;-9.781737;-9.221923;-8.070796;-7.952151;-5.937821;-8.470777;-6.347547;
2.894531;-8.139892;-8.960318;-9.678133;-8.506180;-7.508217;-5.949753;-8.023497;-5.990338;
2.898438;2.070600;5.068734;1.513951;3.281941;0.702451;2.063114;2.065592;3.652015;
2.902344;8.269748;12.130939;8.223732;9.568016;5.338449;7.033057;7.284401;9.164778;
2.906250;4.607130;6.663613;4.192878;4.924436;2.010882;4.080325;2.610691;5.103942;
2.910156;-7.637779;-7.815238;-8.953142;-9.177192;-8.256402;-6.819670;-8.469645;-6.804485;
2.914063;-9.020391;-7.883734;-9.186096;-10.103711;-8.862840;-9.375302;-8.441495;-9.144178;
2.917969;-1.693198;0.934914;0.195412;-0.962794;-1.991020;-3.726882;-1.367888;-3.394284;
2.921875;-2.666731;-2.943798;-0.810623;-2.166067;-2.365535;-2.498951;-3.431673;-3.934718;
2.925781;-9.217804;-12.805301;-8.638102;-8.969985;-7.544972;-4.586050;-10.811193;-8.987517;
2.929688;-15.413170;-19.962057;-15.641012;-15.108266;-12.144630;-8.163542;-16.131271;-14.154336;
2.933594;-9.546609;-11.712778;-8.229638;-7.768977;-6.186190;-3.931424;-9.471542;-8.932443;
2.937500;0.043822;-0.515185;3.067803;3.186636;2.244156;2.915511;-0.316535;-0.155852;
2.941406;-3.029819;-6.438109;-1.263812;-1.984883;-1.517046;-0.585283;-3.691345;-2.890129;
2.945313;-6.724750;-11.896406;-6.924753;-7.574247;-6.603119;-4.265677;-7.719944;-7.072317;
2.949219;-4.192944;-8.165844;-5.066270;-4.993062;-5.986683;-2.574317;-5.571620;-5.780922;
2.953125;3.933404;2.489258;4.172852;4.427919;0.354912;2.958764;1.351215;0.583125;
2.957031;7.130033;6.622085;8.111540;7.939058;2.718287;3.410024;3.438582;2.749133;
2.960938;-1.392228;-4.428843;-1.737797;-3.045542;-4.887962;-4.965850;-4.149764;-4.527821;
2.964844;-1.883826;-5.474311;-2.376307;-3.752787;-4.760818;-4.851468;-3.626568;-4.334520;
2.968750;4.686285;3.474748;4.948046;5.041406;1.811888;1.312483;3.085037;1.931410;
2.972656;6.931801;8.154743;6.983690;8.428696;4.069390;3.321741;5.091366;4.490840;
2.976563;2.362289;3.589962;1.804321;2.958896;0.116588;-0.795313;0.663656;0.956483;
2.980469;-9.392578;-11.266868;-10.874823;-11.518198;-9.876565;-11.730556;-9.819446;-9.477015;
2.984375;-10.609484;-11.908810;-11.772770;-12.724289;-10.668515;-13.617673;-10.375888;-10.781810;
2.988281;-1.055169;1.936502;-1.178161;-1.487083;-2.044446;-4.819515;-0.408611;-1.363409;
2.992188;6.124633;11.186632;6.168708;4.970399;4.562506;2.703012;7.502366;6.533069;
2.996094;6.697261;11.047958;6.298918;3.820288;5.684316;3.458257;8.537831;7.222926;
3.000000;-0.926692;2.482753;-1.771401;-4.861618;0.448325;-3.602007;2.386821;0.087292;
3.003906;-0.381052;6.313585;0.260776;-2.051875;2.123605;-3.042210;4.113443;1.090344;
3.007813;7.381884;17.686066;9.637627;8.289251;8.721922;4.350045;11.693643;9.150249;
3.011719;6.629894;15.240355;8.219483;6.316774;7.446749;4.524477;10.396768;9.474656;
3.015625;-0.006767;5.219531;0.766758;-1.187909;1.776474;0.321293;2.997649;4.030720;
3.019531;-7.436929;-5.004102;-6.581376;-6.972879;-4.172428;-3.068961;-5.185154;-2.519228;
3.023438;-4.160362;-2.711589;-1.943151;-0.062559;-1.177885;2.663897;-3.668871;-0.433895;
3.027344;2.925607;3.257960;6.371422;8.214801;4.814376;8.269169;1.673341;3.885168;
3.031250;-2.106285;-5.922967;0.702630;-1.136810;-0.096900;0.091082;-3.474670;-3.061064;
3.035156;-7.428818;-14.260233;-5.325950;-9.014405;-5.825030;-6.653469;-8.855955;-9.457749;
3.039063;-6.469728;-13.366066;-4.708747;-6.177859;-5.808452;-3.810166;-7.965834;-8.193559;
3.042969;0.438322;-4.380408;2.145620;3.218315;0.006533;4.025962;-1.512774;-0.604844;
3.046875;5.047282;1.497620;6.386342;7.717332;3.898328;6.802663;2.390099;4.379673;
3.050781;-1.291005;-6.769897;-1.442572;-1.690102;-1.871103;-0.362031;-3.227666;-1.014097;
3.054688;-2.598542;-8.348913;-3.366268;-4.063562;-3.766269;-2.143885;-3.972851;-2.970998;
3.058594;2.210299;-1.933002;1.380046;1.336897;-0.563488;1.046385;0.557279;-0.392205;
3.062500;3.690470;1.007885;2.658231;2.455379;0.883952;1.062578;2.339082;-0.093384;
3.066406;-0.102316;-0.815448;-0.977227;-2.239071;-0.781418;-2.380629;0.426853;-2.699876;
3.070313;-8.460366;-7.783302;-9.635345;-11.901130;-6.682550;-8.835963;-5.527774;-8.516723;
3.074219;-6.574718;-2.840630;-7.800197;-8.292430;-5.529267;-6.342530;-3.978337;-5.797394;
3.078125;1.300046;7.950779;-0.101664;2.012632;0.183440;1.445797;2.373651;1.928510;
3.082031;3.087387;8.667998;1.318176;2.411036;2.503959;3.619582;4.355467;4.011703;
3.085938;0.534032;3.696265;-0.796257;-2.047891;3.043720;1.707569;3.278941;2.005453;
3.089844;-7.100716;-5.018250;-7.934813;-9.442061;-1.343113;-4.040699;-2.144358;-3.991407;
3.093750;-7.331085;-3.021716;-6.460635;-6.550656;-1.163026;-3.717652;-1.877082;-3.756236;
3.097656;-1.786272;4.429614;0.760085;0.862657;3.134591;0.127801;2.284656;0.480402;
3.101563;-3.908208;0.180726;-2.387027;-3.982503;0.487113;-3.047019;-0.656103;-2.257156;
3.105469;-6.730720;-5.118200;-7.182339;-8.762043;-3.459732;-5.608886;-4.134962;-4.960872;
3.109375;-5.907854;-6.128038;-7.638784;-6.846790;-4.710328;-3.383914;-4.664852;-3.762175;
3.113281;2.682046;2.125196;1.653005;4.602520;1.374807;5.800389;1.271877;3.801876;
3.117188;8.921168;8.431028;9.248166;11.416212;6.718644;10.813978;5.514593;8.079871;
3.121094;0.734644;-1.989262;0.408914;-0.674477;0.084984;1.409896;-1.954488;-0.312241;
3.125000;-3.920688;-7.505943;-4.987394;-6.657823;-4.318798;-3.844840;-5.681116;-4.317811;
3.128906;0.533468;-2.007775;-0.306077;0.403779;-1.655812;0.716087;-1.453054;0.464563;
3.132813;8.284788;7.396600;8.031356;10.490183;4.356708;8.132066;5.216509;7.778834;
3.136719;12.224851;12.197644;11.911107;14.259170;8.374438;11.450118;8.756662;11.396396;
3.140625;6.099366;4.382699;4.716419;5.290597;3.995577;5.450752;4.187984;5.853193;
3.144531;4.648820;3.101468;3.829164;3.560330;2.782023;2.866871;3.504591;3.531946;
3.148438;7.695616;7.784408;8.404668;8.556770;5.322248;4.112903;6.112805;4.871227;
3.152344;7.050191;6.943176;8.277857;7.948129;5.632210;2.705103;5.652092;3.438972;
3.156250;2.645539;1.412251;3.493383;1.832157;3.137647;-1.180076;2.653637;-0.571027;
3.160156;-5.126496;-7.020803;-5.233112;-8.085491;-2.961883;-7.259852;-3.026742;-6.521819;
3.164063;-0.617783;0.493194;-0.199019;-2.460930;0.717188;-3.040086;1.448649;-1.499838;
3.167969;9.598926;13.966496;10.794923;9.889015;9.139015;5.438237;10.329285;8.027386;
3.171875;7.571297;11.264009;7.429547;7.111458;6.703300;4.033242;8.232284;6.822607;
3.175781;-0.327146;2.060682;-2.214816;-1.620307;-1.012860;-1.756182;0.999919;0.499875;
3.179688;-5.815459;-3.625387;-8.023279;-7.045066;-5.622670;-6.314346;-3.574731;-4.032795;
3.183594;-0.352777;4.107094;-0.834237;0.548354;-0.111061;-1.683535;1.711231;0.981330;
3.187500;5.258104;10.995340;5.728456;8.053414;4.489200;4.102335;6.314602;6.162533;
3.191406;-0.951328;0.840718;-1.832698;-0.419064;-1.541515;-0.469355;-0.515001;0.255237;
3.195313;-4.566283;-7.145432;-5.986703;-6.311985;-4.221750;-3.614122;-5.109473;-3.996218;
3.199219;-2.817006;-7.016958;-3.804199;-4.228743;-2.200004;-1.519195;-4.391419;-2.963012;
3.203125;1.489424;-1.525808;0.978226;2.403214;0.541812;3.157007;-1.582825;0.699205;
3.207031;1.069726;-1.050217;0.447678;3.297988;-0.954401;3.297275;-2.930749;0.254417;
3.210938;-8.729218;-13.092435;-10.545841;-8.216722;-9.509669;-4.094959;-11.655186;-7.720838;
3.214844;-10.499658;-15.757536;-12.367713;-9.897768;-11.515385;-4.655003;-12.973115;-8.540526;
3.218750;-3.722818;-8.218277;-4.200603;-1.728922;-6.164059;-0.621734;-6.796471;-3.133967;
3.222656;3.383045;-1.245472;4.787179;4.909391;1.859876;1.095082;-0.168521;0.980819;
3.226563;3.608083;-1.809975;5.868081;3.167486;5.219234;-2.231141;0.754758;-0.791783;
3.230469;-7.847970;-13.394640;-6.866490;-11.080496;-3.563745;-12.786520;-7.761956;-10.794575;
3.234375;-9.396658;-11.431303;-8.690761;-12.403244;-5.322003;-13.664886;-7.114058;-11.303226;
3.238281;1.753300;3.277211;3.627732;0.607095;4.981826;-4.099736;4.275427;-1.390715;
3.242188;8.012752;10.211338;10.348356;6.757959;11.604401;1.665511;10.910509;4.478975;
3.246094;4.922098;7.230095;6.630189;2.486990;9.111618;0.417246;9.250628;2.882685;
3.250000;-2.500041;-0.827451;-2.278558;-6.842060;2.238259;-4.879394;3.423460;-3.129884;
3.253906;2.590558;5.318233;2.738921;-0.952011;6.078992;-0.345523;7.490220;0.863701;
3.257813;11.918820;16.516138;12.803767;11.354065;13.612738;8.359983;14.607563;9.535112;
3.261719;7.571634;11.503906;7.743948;7.731251;9.297099;6.458429;10.103229;7.798248;
3.265625;0.183485;2.802532;-0.970949;-0.364970;1.664138;1.349479;3.231610;3.053759;
3.269531;-1.308862;0.362621;-3.642402;-2.757373;-1.629662;-0.583797;1.071074;2.281882;
3.273438;6.289827;9.381299;4.435471;6.218856;3.276715;4.631453;6.441232;9.054483;
3.277344;10.569417;15.451621;9.524859;12.237223;6.585311;8.034064;9.539133;12.976349;
3.281250;1.751532;5.119114;-0.719943;1.446111;-0.828530;0.939339;1.984826;5.164260;
3.285156;-2.114561;0.294840;-5.740842;-3.874453;-4.341387;-2.345909;-1.374569;1.204150;
3.289063;1.795664;4.804674;-1.141067;0.793598;-0.800585;0.268091;1.900286;3.903499;
3.292969;6.246617;10.420306;5.249885;6.754771;4.388281;3.131739;5.802149;6.802748;
3.296875;3.055059;7.231643;3.340556;4.106092;3.400774;0.582986;2.776283;2.988103;
3.300781;-10.242750;-9.214536;-10.690548;-10.786487;-7.428487;-8.742101;-9.807634;-8.895144;
3.304688;-13.195226;-14.200004;-13.577581;-12.822222;-10.795835;-8.647742;-13.791236;-11.475037;
3.308594;-5.432745;-7.093017;-4.347188;-2.477973;-4.690326;-0.539607;-7.695999;-5.333092;
3.312500;1.086913;-1.802404;3.556404;4.603410;1.688229;5.311555;-1.566556;-0.631287;
3.316406;0.685823;-4.125438;3.252047;3.452061;1.943432;4.831147;-1.747961;-1.509640;
3.320313;-8.292190;-16.344473;-7.334422;-7.088409;-7.071895;-3.211314;-11.149721;-9.403194;
3.324219;-7.363225;-15.786548;-6.742762;-5.534784;-8.813705;-2.979367;-12.737331;-8.812359;
3.328125;2.344639;-4.069310;3.544680;5.579005;-2.269895;4.690305;-5.173186;-0.721009;
3.332031;4.636023;-0.788179;5.039508;7.005199;-0.429605;6.551702;-2.098331;1.464815;
3.335938;-1.613974;-6.114245;-2.443347;-0.189360;-5.030807;2.182002;-5.729782;-2.729374;
3.339844;-11.237252;-14.981972;-12.645300;-10.555861;-12.894020;-6.008480;-12.814922;-10.020902;
3.343750;-8.796857;-9.919838;-8.960113;-7.450377;-10.504495;-6.578734;-10.250257;-8.531895;
3.347656;-1.471974;0.220765;-0.381327;0.522856;-2.560241;-3.129290;-3.258354;-3.287998;
3.351563;-4.191448;-3.012747;-3.832066;-4.489501;-2.653647;-6.195755;-4.364591;-5.758952;
3.355469;-6.531822;-6.463816;-7.166133;-8.909611;-4.255056;-8.098142;-5.276815;-7.304117;
3.359375;-4.701823;-4.532248;-5.876636;-7.102855;-3.652832;-6.173238;-2.965948;-4.685060;
3.363281;1.540952;4.399613;0.927499;1.791428;1.663271;0.575358;2.949357;2.197008;
3.367188;3.291207;8.321578;3.322867;5.694351;4.021428;3.613814;4.580051;4.452379;
3.371094;-6.707186;-3.984980;-7.439281;-6.293118;-4.635625;-4.948804;-4.760214;-4.481700;
3.375000;-11.287197;-10.697368;-12.181792;-11.981892;-10.038805;-9.943503;-10.134002;-8.632715;
3.378906;-6.653617;-6.340634;-6.837795;-6.062608;-7.411547;-6.548072;-7.289015;-4.436574;
3.382813;1.284750;2.053348;1.973877;2.935707;-0.505757;0.218797;-0.450876;2.010717;
3.386719;3.101281;3.720831;3.890794;3.961045;2.135525;1.552567;1.866741;2.681428;
3.390625;-6.586107;-8.377334;-6.933133;-8.539376;-5.506489;-6.968172;-6.094164;-6.087087;
3.394531;-8.226991;-10.690440;-8.353864;-10.190540;-7.226846;-8.137959;-7.708472;-7.730022;
3.398438;-0.816579;-2.349224;-0.013943;-0.693473;-1.594455;-1.122337;-1.586365;-2.020845;
3.402344;3.354253;1.212618;3.938232;4.140485;1.047494;3.583794;1.463081;0.995417;
3.406250;1.571223;-3.178592;1.172992;1.878810;-1.889828;3.650340;-1.552050;-0.417571;
3.410156;-6.575402;-15.082540;-7.898174;-7.510064;-9.716102;-2.066972;-10.269446;-7.120903;
3.414063;-7.353671;-15.467763;-7.305073;-6.673305;-9.296205;-2.538662;-11.199598;-7.969816;
3.417969;-3.114594;-7.911139;-1.096267;0.222774;-3.764528;0.775033;-6.089447;-4.837997;
3.421875;-3.612974;-7.274811;-1.699202;-1.120906;-3.257598;0.239425;-4.422714;-5.534036;
3.425781;-3.907090;-7.922534;-2.660856;-3.248192;-2.407234;-0.319383;-3.024212;-5.466567;
3.429688;-5.054918;-9.964217;-4.022169;-5.440070;-1.045231;-2.392920;-3.509767;-5.962749;
3.433594;-0.283264;-3.529002;1.606579;0.451556;4.398620;0.478284;0.412079;-1.723102;
3.437500;7.057457;6.682258;9.180984;8.922033;9.655026;6.948086;7.072088;5.010422;
3.441406;5.850878;5.408041;6.198300;5.615410;6.993256;7.172318;6.790502;5.116570;
3.445313;2.628677;2.273514;2.093410;0.747313;3.600693;4.005705;4.368032;3.117722;
3.449219;0.285339;1.512445;0.480302;-1.262618;1.575102;-0.494511;2.446417;0.918498;
3.453125;5.445413;9.083662;6.677211;5.784558;5.747525;2.645821;7.022701;5.356666;
3.457031;10.831830;15.346745;11.560521;12.042505;9.779069;8.366597;11.639913;11.125477;
3.460938;2.436443;4.468422;0.939358;1.040866;1.750634;2.155552;4.048126;5.215995;
3.464844;-3.496159;-2.874706;-5.628065;-5.619081;-4.307501;-3.005234;-1.841220;0.212820;
3.468750;-0.707998;-0.374638;-1.843124;-0.730249;-2.771581;-0.409215;-0.634120;1.649709;
3.472656;4.613373;4.539081;4.558947;6.089875;1.206325;4.807287;2.801989;5.223081;
3.476563;4.783417;4.663682;4.486671;5.950544;1.540085;5.549468;2.707105;5.105807;
3.480469;-4.396931;-5.432767;-6.689747;-5.049987;-4.935081;-1.995137;-4.487586;-2.683816;
3.484375;-3.606013;-3.845644;-5.595647;-3.332688;-2.173548;-1.702211;-2.731350;-2.414577;
3.488281;5.713585;7.064641;6.605326;8.007094;7.595481;5.551620;6.511944;5.102933;
3.492188;8.001886;8.857588;10.831577;9.520969;10.296142;6.797279;9.272788;6.753885;
3.496094;3.273086;1.671380;5.755527;2.716695;5.866682;1.284698;4.630988;1.680837;
3.500000;-3.778906;-8.678802;-3.488832;-6.441115;-1.533950;-6.374047;-3.119588;-5.604503;
3.503906;0.823062;-2.922554;-0.142923;-0.703271;0.087642;-1.942648;-0.390449;-1.364878;
3.507813;9.257792;9.158975;8.128978;10.190426;5.152529;7.492316;6.879006;7.379314;
3.511719;6.281920;6.298735;4.939175;6.464121;2.356675;5.736761;4.942359;5.155110;
3.515625;-1.037985;-2.731558;-2.001190;-2.210982;-2.234415;-1.960474;-0.809092;-2.607216;
3.519531;-6.612607;-9.516239;-7.175454;-8.279317;-4.969123;-8.534186;-5.421774;-8.817620;
3.523438;-2.286917;-3.214823;-1.551867;-2.866457;0.109762;-5.661805;-1.297376;-5.082322;
3.527344;2.409060;4.404543;4.391316;2.713558;4.658134;-1.230974;3.835498;0.005723;
3.531250;-4.134737;-2.907542;-3.320422;-5.785806;-1.377755;-5.832340;-1.268588;-4.603481;
3.535156;-6.434484;-6.458943;-6.967311;-9.080603;-4.148765;-7.033573;-3.865152;-5.713094;
3.539063;-2.173023;-1.915352;-2.153497;-3.875313;-0.740469;-2.954437;-0.738116;-0.920909;
3.542969;4.378135;6.127379;6.294651;4.234550;4.855014;2.882923;4.818594;5.420004;
3.546875;7.407864;9.603312;9.433953;7.764552;7.147847;5.912067;7.264794;7.870161;
3.550781;1.060367;1.170270;0.310242;-0.388590;1.475453;1.009156;1.666982;2.182467;
3.554688;-0.033538;0.461652;-1.903399;-1.579186;0.390345;-0.588330;0.924724;1.205403;
3.558594;5.561557;8.682120;5.290119;5.326290;5.105054;2.848586;6.140926;6.219132;
3.562500;9.991676;14.870190;11.560102;10.452271;9.405882;7.047363;10.495315;10.921659;
3.566406;7.543837;12.695388;9.407440;7.995843;8.131145;6.882385;8.991015;9.885297;
3.570313;-3.379771;0.482311;-2.976841;-4.812366;-1.074914;-1.583139;-0.113194;0.852398;
3.574219;-3.646793;1.686770;-3.142636;-5.230189;-1.641044;-2.218382;-0.158630;0.531312;
3.578125;3.840612;12.151273;5.742238;3.945634;4.859525;4.253980;6.747543;6.884386;
3.582031;2.558202;10.796306;4.237914;2.939380;3.919733;3.813644;5.933187;5.211346;
3.585938;-4.113486;1.697708;-3.877218;-4.346908;-2.330921;-1.661874;-0.094439;-1.515680;
3.589844;-7.712618;-4.979828;-8.850289;-9.052440;-6.268185;-4.743311;-3.808323;-4.758776;
3.593750;3.418188;6.444618;2.593635;3.360376;2.569199;5.151592;5.158540;5.816994;
3.597656;15.602861;20.599604;15.555882;17.804235;12.285652;16.075342;15.278815;17.311689;
3.601563;11.142005;15.024519;10.701962;12.385204;7.713430;11.801785;11.071633;13.035877;
3.605469;1.734274;3.359318;0.991906;1.081484;-0.908475;1.634020;2.201228;2.706684;
3.609375;-4.469759;-4.240396;-5.454158;-6.118549;-6.477012;-6.186146;-3.830865;-4.900606;
3.613281;-0.046093;1.975127;-0.658287;-0.099765;-2.407855;-3.073129;0.060630;-1.505296;
3.617188;8.006589;12.041117;7.820412;9.824194;5.505950;5.273350;7.536566;6.601707;
3.621094;5.333040;6.872151;4.693035;5.037273;4.803577;4.316317;5.603474;5.267919;
3.625000;3.239101;2.827431;3.120530;1.114277;4.562387;2.304137;4.231144;3.596512;
3.628906;5.739228;6.465676;6.304579;4.197108;7.709586;4.031666;7.290116;6.134664;
3.632813;10.216574;13.515018;10.804962;10.082233;11.818304;8.682647;12.090543;10.876325;
3.636719;10.169364;14.630502;10.236207;10.513174;11.033395;10.108800;12.244873;11.423422;
3.640625;0.031208;2.048198;-1.053987;-1.031599;0.813404;2.058704;2.694586;2.684716;
3.644531;-2.322746;-1.386363;-3.034766;-2.318297;-2.474468;-0.605739;-0.485746;0.206566;
3.648438;4.533191;6.498220;4.627720;6.729158;2.826909;4.308290;4.606582;5.527318;
3.652344;9.550061;12.041969;9.203871;11.294436;6.633273;8.044279;8.259865;9.271575;
3.656250;7.534329;9.608707;6.339550;7.666718;4.379785;5.876729;6.099585;7.051498;
3.660156;-2.169215;-2.037672;-4.254904;-3.642111;-3.878935;-3.022287;-2.258710;-1.498067;
3.664063;-0.908037;-0.601726;-2.489166;-1.199851;-2.339787;-2.307440;-1.463025;-0.601533;
3.667969;7.653455;9.141033;6.958452;9.635125;5.113801;5.677746;5.145696;6.364290;
3.671875;6.598690;6.444692;6.030116;8.361515;4.058815;6.192222;3.580598;4.831260;
3.675781;-0.658684;-3.710778;-0.496292;-0.390989;-1.748973;0.088377;-3.177878;-2.788185;
3.679688;-9.319100;-14.411450;-8.794079;-11.064538;-8.354142;-8.977498;-11.256884;-11.864193;
3.683594;-8.433145;-11.507151;-8.196404;-9.261408;-7.788683;-8.644028;-11.033728;-11.044618;
3.687500;-3.450831;-4.043819;-3.337013;-1.473642;-3.974257;-2.703261;-6.573397;-5.041307;
3.691406;-7.751819;-10.114809;-7.194530;-6.116303;-6.315619;-5.466817;-9.208838;-7.517865;
3.695313;-13.105895;-16.734856;-12.121098;-12.549347;-9.494375;-10.284163;-12.704673;-11.755917;
3.699219;-12.689145;-15.341078;-12.831653;-12.196526;-10.177414;-9.648757;-11.849014;-10.923855;
3.703125;-0.059558;-0.838175;-0.369363;1.293482;-0.827076;1.328364;-0.491473;0.192104;
3.707031;11.320014;11.202979;12.318770;13.062683;9.316142;10.751122;9.999689;10.005394;
3.710938;2.436126;0.784821;3.108217;2.697159;2.227367;3.663752;2.190156;2.955121;
3.714844;-8.073617;-9.498955;-8.319399;-7.527891;-7.645108;-4.189567;-7.945230;-5.392117;
3.718750;-5.452187;-5.827466;-5.874415;-3.733103;-5.971801;-1.896157;-6.417814;-3.426317;
3.722656;6.556721;6.432441;6.580026;8.208540;4.864591;6.929181;3.837168;5.760190;
3.726563;13.191947;12.512541;12.911281;13.954713;10.266974;11.121053;9.381451;10.860141;
3.730469;4.345152;1.832119;2.254399;3.178071;1.073636;3.352810;1.657405;4.061674;
3.734375;-0.764952;-1.869248;-2.976313;-1.305417;-3.930636;-0.250770;-1.908014;1.097511;
3.738281;1.973282;4.126748;1.288228;3.622124;-0.456551;2.790985;1.913804;4.273477;
3.742188;1.743030;4.285375;1.965822;3.550275;0.233319;2.889643;2.238410;3.894745;
3.746094;-3.815569;-3.039004;-3.739384;-3.199076;-4.736958;-1.947914;-3.650221;-1.727584;
3.750000;-12.776838;-14.493601;-13.812929;-14.000174;-12.487206;-10.311899;-12.913876;-10.652792;
3.753906;-9.350146;-10.833770;-9.943814;-9.618877;-8.728104;-8.186280;-10.469363;-8.958093;
3.757813;-0.251154;-0.527039;0.745541;1.972650;0.094185;-0.247814;-2.148659;-1.576741;
3.761719;-2.852831;-4.458622;-1.653030;-0.917480;-2.085249;-1.492405;-4.074464;-3.502871;
3.765625;-10.654493;-13.549449;-10.093734;-10.111002;-9.652281;-7.670109;-11.212856;-10.342887;
3.769531;-15.238669;-18.722012;-15.373064;-16.100658;-14.299127;-12.888825;-15.830732;-15.441592;
3.773438;-5.272273;-7.963078;-4.928315;-5.662972;-6.242157;-6.562359;-7.415713;-8.277028;
3.777344;8.603642;6.210501;9.497280;9.398010;4.923787;5.055941;5.187890;3.318363;
3.781250;5.399203;1.044411;5.496020;4.435144;2.113352;3.588524;3.524985;1.111514;
3.785156;-3.387740;-7.630982;-3.439727;-5.928198;-3.638329;-4.093980;-3.246447;-6.379185;
3.789063;-4.489448;-6.796489;-4.077887;-6.494946;-2.191821;-6.007462;-3.918651;-7.502219;
3.792969;5.395759;5.520611;6.575055;5.711604;7.007064;3.141733;4.930208;1.982839;
3.796875;11.316902;12.896710;13.021335;13.148267;11.555793;9.910669;10.671889;8.992766;
3.800781;-0.216638;-0.629869;0.647427;-0.581172;1.426389;0.253342;0.763252;-0.205588;
3.804688;-7.101862;-8.862516;-6.895783;-8.700788;-4.963265;-7.113095;-6.289877;-7.252927;
3.808594;-1.078763;-1.521370;-1.562654;-1.074418;-1.303383;-2.243509;-1.971073;-2.285433;
3.812500;6.817638;9.466631;5.599060;8.964551;4.202200;6.724651;5.600710;6.795835;
3.816406;7.132574;11.733843;5.918316;9.295317;5.359778;8.422075;7.473960;9.106988;
3.820313;-1.809664;0.616180;-3.244849;-3.186798;0.209114;-1.079817;0.703796;1.012857;
3.824219;-1.308826;0.611460;-2.430047;-3.707807;1.820531;-3.042243;1.332129;0.490098;
3.828125;6.101152;10.300099;5.464920;5.977283;6.957219;3.341042;7.718621;7.142210;
3.832031;6.408448;10.729701;5.702100;6.760510;5.451377;4.611002;7.288212;7.181358;
3.835938;0.113806;1.498257;-0.897966;-1.128132;-1.057243;-1.262630;-0.058356;-0.551079;
3.839844;-9.504851;-12.045710;-10.991158;-12.312675;-9.650026;-10.446840;-9.841430;-11.062494;
3.843750;-7.278435;-8.806856;-7.161931;-7.783961;-6.801079;-7.552723;-6.862468;-8.660938;
3.847656;1.450781;3.777424;3.843408;3.791127;2.842805;2.021968;3.065658;0.907422;
3.851563;0.568545;2.758263;2.719315;1.002006;4.128419;1.866320;3.374255;0.969002;
3.855469;-5.088147;-5.311704;-4.099339;-7.138479;0.163527;-4.006620;-2.076139;-4.777545;
3.859375;-10.673903;-12.768410;-10.082920;-12.733607;-4.927780;-9.651064;-8.258489;-10.815857;
3.863281;-6.045900;-7.325230;-4.583448;-5.734971;-2.059840;-5.657008;-5.680713;-7.389659;
3.867188;1.480571;1.378515;3.274262;2.908689;3.309577;0.635706;0.363040;-0.529380;
3.871094;-3.442748;-5.557209;-3.196736;-4.810141;-1.562161;-4.515069;-3.455754;-3.897847;
3.875000;-7.343519;-10.618094;-8.218665;-9.876013;-5.584612;-8.000842;-6.646435;-6.490871;
3.878906;-3.992978;-5.767784;-5.100595;-4.668744;-3.063396;-3.659059;-3.823533;-3.107714;
3.882813;2.947247;3.985105;2.572797;4.507771;3.517703;3.429119;2.663225;2.913479;
3.886719;3.678433;5.237290;4.133849;5.249348;4.835260;3.265350;3.921860;2.948948;
3.890625;-7.991955;-10.103006;-8.373930;-9.669209;-5.533965;-8.666583;-6.517838;-7.995086;
3.894531;-11.595117;-14.869280;-12.426760;-14.065625;-9.656352;-12.989083;-10.763752;-11.573149;
3.898438;-3.123329;-4.040589;-3.272638;-3.502228;-3.058130;-5.227076;-3.975557;-3.858236;
3.902344;5.799994;6.431236;6.273154;6.316876;4.272480;3.680221;4.157514;4.707067;
3.906250;7.257407;7.085201;7.250150;6.550618;4.712235;5.306493;5.813221;6.446956;
3.910156;-1.589483;-4.308677;-3.108017;-4.725926;-3.901168;-2.681152;-1.877005;-1.319326;
3.914063;-3.092816;-5.095025;-4.376766;-5.082698;-5.375518;-4.012815;-3.352563;-2.847056;
3.917969;2.040784;2.728666;1.672068;2.828131;-0.045705;0.672473;0.995260;1.854215;
3.921875;1.000327;1.823611;0.338476;1.098937;0.391607;-0.398273;0.106557;1.229900;
3.925781;-3.954733;-4.566893;-4.884772;-5.504134;-3.310756;-4.805920;-4.566235;-3.429839;
3.929688;-10.656694;-13.292751;-11.911320;-12.399109;-9.740392;-9.732342;-11.375481;-9.588862;
3.933594;-6.662474;-8.863328;-7.301935;-5.972374;-7.180117;-5.078214;-8.646138;-6.219446;
3.937500;3.299464;2.563222;3.737735;5.521199;1.533381;3.892667;0.351477;2.172832;
3.941406;2.436319;0.477126;2.598274;2.257171;1.776343;2.925504;0.680147;1.437721;
3.945313;-2.940715;-5.909209;-3.245824;-4.654075;-1.818184;-1.384641;-2.877296;-2.890695;
3.949219;-6.023079;-8.928921;-6.125180;-7.385970;-3.300761;-3.359101;-4.357737;-5.831807;
3.953125;-0.224138;-1.945472;1.240124;-0.360344;2.780345;1.059630;1.767647;-2.138816;
3.957031;5.442812;4.253229;8.077599;5.724912;7.573924;3.958005;6.768061;1.424352;
3.960938;-1.734399;-4.906207;-0.512469;-3.727201;-0.195664;-3.934057;-0.597090;-5.047176;
3.964844;-6.077471;-9.460587;-6.190375;-8.576383;-5.986428;-7.943575;-5.697990;-8.494755;
3.968750;-2.803668;-4.754419;-2.614916;-3.219999;-4.052929;-4.079081;-3.207747;-5.291920;
3.972656;4.536048;3.896230;5.951452;6.150385;2.962690;3.686682;3.831340;2.107130;
3.976563;9.653613;9.022889;10.826530;11.205126;8.043102;9.113591;8.761971;8.146660;
3.980469;3.592796;0.430328;2.033412;2.519151;2.256809;4.284665;2.948435;3.597084;
3.984375;1.042673;-2.014712;-1.265199;-0.111731;-0.602815;1.664504;0.003716;0.731339;
3.988281;5.055290;4.694706;4.545998;5.551608;3.131387;3.931437;3.556822;3.695095;
3.992188;7.263894;8.367934;7.787804;7.784024;5.127837;4.934545;5.574241;6.010281;
3.996094;4.463104;5.320990;4.161814;4.505183;1.816770;2.598770;2.519573;4.068303;
4.000000;-5.272680;-6.358627;-7.549140;-6.360115;-7.663385;-5.525008;-6.686839;-4.348517;
4.003906;-5.460381;-5.602268;-7.574045;-5.786870;-8.393546;-5.740884;-6.681220;-4.367747;
4.007813;2.971083;5.948753;3.091558;4.221746;-0.957089;1.463164;2.083086;3.756708;
4.011719;4.534798;7.958996;6.102419;4.779033;1.761654;2.874241;4.929707;5.756770;
4.015625;-1.521033;0.993057;-0.342055;-2.174303;-1.165726;-1.062184;0.040806;0.910592;
4.019531;-10.419594;-8.676131;-11.417322;-10.267877;-7.842714;-5.345517;-8.324150;-5.314291;
4.023438;-5.217317;-2.668349;-6.765156;-1.951023;-4.428636;2.820949;-5.024191;1.185187;
4.027344;6.410820;8.939701;6.388271;11.978549;5.077001;15.089270;4.113392;12.215553;
4.031250;2.486110;2.148198;2.615799;6.240669;2.392775;12.417341;0.528273;8.496732;
4.035156;-6.014017;-7.632898;-6.769471;-4.229557;-5.167330;3.845666;-6.721392;-0.272240;
4.039063;-6.396700;-7.472564;-7.313315;-5.281606;-6.460018;0.335851;-6.813901;-2.665428;
4.042969;3.269986;3.642807;3.782001;5.129675;1.850847;5.264289;2.172141;3.824443;
4.046875;8.941528;9.934928;10.164913;11.309390;7.498580;8.263749;7.934213;7.567008;
4.050781;0.219453;-0.963728;-0.180582;-0.234456;0.460531;-0.389744;0.883018;-1.058897;
4.054688;-3.668791;-5.135728;-4.135730;-6.092816;-2.835661;-5.839828;-2.383512;-6.055868;
4.058594;1.049931;1.753630;2.758086;-0.748922;1.701208;-3.739315;2.306647;-2.835230;
4.062500;5.908809;8.535508;9.100794;5.329842;6.866688;0.437265;7.712296;2.230631;
4.066406;5.138793;7.704786;7.412457;4.735832;6.792204;0.795714;7.552375;2.643606;
4.070313;-3.768522;-3.905429;-3.784871;-6.037020;-0.852824;-6.449088;-0.727694;-4.788029;
4.074219;-3.654963;-3.925708;-3.495293;-5.408949;-0.722698;-6.253172;-1.143232;-4.215445;
4.078125;5.493821;7.152945;7.331436;5.984473;7.453161;2.490068;6.890263;5.117446;
4.082031;11.075249;12.931206;13.071714;11.882027;12.489839;8.868773;11.903295;11.409065;
4.085938;8.993166;10.390330;9.778576;9.249670;10.556754;8.499459;10.062942;10.308629;
4.089844;-0.743660;0.090631;-1.638133;-1.691811;1.635582;0.672739;1.422744;2.205223;
4.093750;-0.293074;2.426021;-0.971493;-0.373185;0.845754;0.627951;1.404195;2.958174;
4.097656;7.252634;12.775020;8.013177;9.374837;5.946938;6.775350;7.856828;10.112867;
4.101563;4.152364;9.955681;5.238060;5.913423;2.883279;4.506267;5.738642;7.977471;
4.105469;-3.361116;1.808300;-2.827421;-3.000383;-3.006701;-1.664464;-0.430238;1.103083;
4.109375;-6.729486;-2.788042;-7.357114;-7.719025;-5.313927;-5.141822;-3.704820;-2.835457;
4.113281;1.685821;6.006820;1.623405;1.243416;2.727330;0.629718;3.672094;3.591063;
4.117188;10.538893;15.495527;12.703083;11.139118;11.843161;6.956810;12.546247;10.805580;
4.121094;5.350509;7.684316;8.027471;4.384224;8.648645;3.468336;9.012618;6.544525;
4.125000;-0.056206;0.305310;1.369341;-0.850373;3.973202;2.479660;3.699413;2.806108;
4.128906;-0.014546;-0.301274;-0.140739;1.882165;2.822935;5.706931;1.859624;3.330395;
4.132813;5.726078;4.689474;5.673387;9.729659;5.905610;10.268453;4.755946;6.957571;
4.136719;10.012111;7.218436;10.497882;13.287009;7.856179;11.457459;7.086312;8.260170;
4.140625;1.780704;-3.876914;0.979200;1.621070;0.140711;2.649662;-0.500750;-0.314968;
4.144531;-3.876818;-8.740726;-5.205415;-4.352987;-4.540827;-3.328203;-5.673986;-5.496787;
4.148438;-0.429161;-2.786814;-0.951666;1.131183;-1.642408;-1.740113;-3.338399;-2.731810;
4.152344;6.032836;4.225110;6.009480;7.754621;3.455516;2.850765;1.777851;2.412811;
4.156250;6.366213;4.255410;5.855477;6.344827;3.613492;2.336199;2.462823;2.075158;
4.160156;-4.425683;-7.082949;-5.917061;-7.416311;-4.918968;-8.892806;-5.839312;-8.264296;
4.164063;-5.794916;-5.786298;-5.987712;-8.653480;-4.984229;-12.094948;-5.855217;-10.064558;
4.167969;2.755866;6.954343;4.483814;2.180432;2.800553;-4.619815;2.720368;-1.944723;
4.171875;5.732628;11.283203;7.186776;5.093104;5.375708;-0.642283;6.328039;1.766526;
4.175781;1.954611;6.668468;2.085556;-0.193937;2.615462;-4.046236;3.779596;-1.170188;
4.179688;-6.132725;-3.279850;-7.150970;-10.038119;-3.891804;-13.208502;-2.830126;-8.423970;
4.183594;-3.199071;0.653176;-3.245847;-6.331262;-1.181001;-12.139354;0.202303;-5.897169;
4.187500;6.977711;13.069437;8.700116;5.584844;8.652197;-1.957678;10.017162;3.970116;
4.191406;7.356085;11.836644;8.922283;5.032338;10.329860;1.473834;10.747807;6.001152;
4.195313;0.917099;2.331199;1.849582;-1.675286;4.407020;-1.042711;3.671492;1.340813;
4.199219;-8.278320;-8.515240;-7.583698;-9.138875;-5.407270;-6.145886;-6.940536;-6.564507;
4.203125;-9.040397;-8.178358;-7.807774;-7.137584;-7.818628;-4.571729;-9.554090;-7.396008;
4.207031;-4.936377;-3.717408;-3.194618;-1.994042;-5.131906;0.039177;-6.374726;-4.105847;
4.210938;-10.425668;-12.223558;-9.801226;-9.196701;-10.196380;-3.497426;-10.737727;-8.436065;
4.214844;-12.040903;-15.010229;-12.721465;-10.095582;-11.865664;-2.378060;-11.990227;-8.027266;
4.218750;-2.463199;-4.995473;-3.462902;1.558316;-3.593101;8.063133;-3.658554;2.149457;
4.222656;9.781119;6.812261;9.635330;14.333823;6.833404;18.265785;6.841260;12.709197;
4.226563;10.313508;5.397328;10.295781;14.022187;6.459450;16.533276;6.497582;11.544517;
4.230469;-3.919254;-12.279679;-5.749247;-2.591338;-6.379925;2.607531;-6.920140;-2.141653;
4.234375;-9.481105;-17.626060;-11.889811;-8.000296;-11.039698;-2.293646;-12.284941;-7.749646;
4.238281;-4.040702;-9.304508;-5.937941;-0.511366;-6.603674;2.828474;-7.931153;-3.960442;
4.242188;0.683730;-3.469029;-1.139412;4.406002;-3.430824;6.143955;-4.504748;-0.827024;
4.246094;-0.105227;-5.015564;-1.760759;2.156056;-4.453851;3.628726;-5.538572;-2.046971;
4.250000;-9.173864;-15.585319;-10.968294;-9.447087;-11.457840;-5.803228;-12.853096;-10.417462;
4.253906;-10.419656;-14.373699;-11.349354;-10.881251;-11.211303;-8.825257;-12.389968;-12.531740;
4.257813;-3.712701;-3.014702;-3.413250;-3.031144;-4.241741;-5.473188;-4.182365;-7.107213;
4.261719;-0.850640;0.827845;-1.020221;-1.047611;-1.275492;-4.172660;0.211915;-3.391360;
4.265625;0.759075;0.908211;-0.718655;-0.376772;-0.411835;-2.695486;1.799398;-0.411327;
4.269531;0.339444;-0.279876;-1.753113;-0.954152;-1.434662;-2.862679;0.908456;0.214424;
4.273438;4.835824;7.581108;4.760969;5.308350;2.704814;1.713118;5.008841;4.887930;
4.277344;8.896725;14.663915;11.131207;10.531838;7.024327;6.407716;8.984222;8.754660;
4.281250;1.270769;3.998595;2.626941;0.291727;0.748840;-0.003759;1.924086;1.377525;
4.285156;-5.662246;-6.569635;-6.074976;-8.570784;-5.548337;-6.917820;-5.017294;-5.734043;
4.289063;-5.577176;-6.394698;-6.507455;-7.817379;-5.626061;-6.620045;-4.907827;-5.191750;
4.292969;2.530442;5.304986;2.404744;2.964488;1.488296;3.039589;3.178779;4.166301;
4.296875;7.927271;12.816352;7.742770;10.319628;6.003860;11.282209;8.434897;11.332922;
4.300781;0.131343;1.853458;-1.840697;0.941277;-0.845555;6.509832;1.209991;5.521139;
4.304688;-3.197794;-3.784298;-4.827654;-2.968316;-2.738318;3.102160;-1.835090;1.763724;
4.308594;1.372925;1.279867;2.025197;2.996895;3.054244;5.645103;2.775116;4.249211;
4.312500;4.891294;5.508720;6.816043;7.713696;6.433611;7.948580;5.633959;6.314740;
4.316406;1.291852;0.597373;2.786548;3.715335;1.521338;4.208767;1.040458;2.460227;
4.320313;-9.420795;-13.994123;-9.064078;-10.121812;-8.688455;-6.205166;-9.131324;-7.869833;
4.324219;-8.778859;-13.231195;-8.317894;-10.006190;-6.994525;-6.281534;-8.158112;-8.218422;
4.328125;-1.160834;-2.237162;-0.950634;-0.286398;0.023894;0.337608;-1.499405;-2.336694;
4.332031;-0.826679;-1.539152;-1.410400;-0.242352;-0.741652;-0.862379;-2.235898;-3.918723;
4.335938;-6.907379;-10.083430;-6.882648;-8.654853;-5.499286;-9.757192;-7.937914;-11.992620;
4.339844;-15.966574;-21.703058;-15.477203;-20.179142;-11.121267;-20.673990;-15.037619;-21.623022;
4.343750;-12.690879;-16.913366;-11.907858;-16.005039;-7.757020;-18.448389;-11.687329;-19.076931;
4.347656;-2.906271;-4.287144;-1.611926;-4.023922;-0.411311;-9.228884;-3.109384;-9.783782;
4.351563;-2.177839;-3.811224;-0.830556;-3.815221;0.134224;-7.634856;-1.787025;-7.003019;
4.355469;-4.385231;-6.323294;-3.678698;-6.589677;-1.438882;-7.930126;-2.845762;-6.003619;
4.359375;-5.382291;-6.158455;-6.494288;-7.241212;-3.984292;-6.774156;-4.061525;-4.859097;
4.363281;1.487641;3.962241;-0.181403;1.344450;-1.131316;0.115359;0.591505;1.381234;
4.367188;8.005318;12.726348;7.095155;8.661396;2.953845;5.277162;5.563618;6.683931;
4.371094;2.464699;5.304526;0.913319;0.339480;-1.289844;-0.265522;1.013423;2.152039;
4.375000;-1.054749;0.602147;-3.607062;-4.610390;-3.667747;-3.179214;-1.591966;0.091451;
4.378906;2.694765;5.478025;-0.147243;0.557961;-0.383300;1.170159;2.066618;4.601823;
4.382813;11.406682;16.286316;9.360462;11.539652;7.437635;9.791199;10.198929;12.965796;
4.386719;14.199801;19.717211;13.050025;14.709044;10.717111;12.832241;13.637310;15.756239;
4.390625;3.401963;6.394650;1.618951;0.816467;1.528744;4.117824;5.177226;6.910351;
4.394531;0.590376;2.650197;-1.875644;-2.638345;-1.982071;2.613803;2.456189;5.030879;
4.398438;10.433491;13.731036;7.987412;10.015815;6.537186;12.535299;10.142277;14.318584;
4.402344;19.380030;23.596863;17.923210;20.993868;16.102980;21.512325;17.928297;23.052187;
4.406250;16.317738;19.273184;15.902106;17.364031;14.585270;18.463430;15.397251;20.049583;
4.410156;0.186342;-1.363014;-0.764480;-1.613032;0.352886;2.222023;0.151412;3.234334;
4.414063;-5.861692;-9.356755;-6.655565;-7.782836;-5.045976;-5.621448;-6.736886;-5.692177;
4.417969;-1.261242;-3.254966;-1.251611;-1.321763;-1.129895;-3.092117;-3.272642;-3.688245;
4.421875;-1.158898;-2.120065;-1.141749;-1.473496;-1.686526;-3.506314;-2.746167;-3.740062;
4.425781;-4.415207;-5.283050;-3.990995;-5.924681;-4.459188;-6.735846;-4.360470;-6.246275;
4.429688;-8.768840;-10.638284;-7.626061;-11.539987;-6.704681;-10.852919;-6.626195;-10.156100;
4.433594;-4.674039;-5.272426;-2.666083;-5.984111;-2.035276;-6.878749;-2.594474;-7.124220;
4.437500;1.431979;3.244441;2.992964;2.840823;2.987055;-0.043412;2.379579;-1.407517;
4.441406;-1.956515;-0.471900;-2.436448;-1.544088;-0.273861;-2.335638;-0.416780;-3.108011;
4.445313;-6.348642;-4.943953;-7.740639;-8.744300;-3.821401;-8.527183;-3.686672;-6.633281;
4.449219;-8.646616;-5.809422;-9.704386;-12.400192;-5.579233;-13.367927;-5.264322;-8.689863;
4.453125;-1.847515;3.522503;-1.583161;-3.034741;0.198938;-7.172494;0.766729;-1.812861;
4.457031;6.769177;12.462552;7.952400;8.527094;7.218556;2.613933;7.761332;6.907254;
4.460938;1.191392;2.529302;1.322640;1.459319;1.284354;-0.555579;1.543121;2.434730;
4.464844;-5.082095;-7.074214;-5.744531;-5.806875;-5.515510;-4.984851;-5.579154;-3.546469;
4.468750;-2.938614;-5.108697;-3.419159;-2.348219;-4.060336;-2.314560;-4.467428;-2.392180;
4.472656;5.759118;5.372430;6.107391;7.532063;3.667989;5.054476;3.547242;4.842924;
4.476563;9.435386;10.425865;10.450337;10.740835;7.122907;7.378113;7.895936;8.231409;
4.480469;-1.020865;-1.197372;-0.213206;-2.122482;-0.397688;-1.898208;0.110464;-0.443194;
4.484375;-4.770022;-4.815094;-3.273233;-5.591348;-1.566229;-4.343887;-2.644574;-3.577126;
4.488281;2.731418;3.249761;4.643889;4.000672;4.931577;3.507308;3.201421;3.063322;
4.492188;8.489485;8.421297;9.834734;10.167456;8.045489;9.289165;7.395739;8.262224;
4.496094;5.573161;5.277801;6.953928;6.398435;4.755216;6.211773;5.280830;5.418936;
4.500000;-4.902009;-6.332855;-3.335251;-6.103991;-2.845895;-4.201804;-2.326723;-4.255219;
4.503906;-1.994189;-3.098833;0.214816;-2.853406;1.073210;-2.918132;1.010010;-1.903145;
4.507813;10.661759;10.572487;12.998867;11.919557;11.748487;7.735707;11.297326;9.584515;
4.511719;12.417351;11.598025;13.612787;13.758514;12.574007;10.187304;11.724675;11.978527;
4.515625;3.858517;2.515110;4.208628;4.128064;5.025536;3.689952;3.707368;4.674702;
4.519531;-6.453071;-8.803555;-6.154850;-7.887977;-4.204540;-6.270923;-5.936132;-5.933343;
4.523438;-4.615879;-6.720445;-2.892459;-5.709472;-3.207492;-7.187234;-5.380897;-6.666426;
4.527344;0.754652;0.270104;3.207195;1.326414;1.191281;-3.273844;-1.101742;-2.371184;
4.531250;-3.837005;-4.327330;-3.057177;-3.999279;-2.806743;-5.634305;-4.505978;-5.121697;
4.535156;-6.753461;-7.956760;-7.054231;-7.908104;-5.367136;-7.386382;-6.477647;-7.696794;
4.539063;-5.284733;-7.528643;-5.375396;-6.607279;-4.185714;-6.774910;-5.448161;-7.493957;
4.542969;0.343884;-1.047205;1.094350;0.394505;0.403093;-1.555064;-1.031496;-2.151834;
4.546875;3.106142;3.251340;4.090137;4.413622;2.736555;2.373097;1.722647;2.141941;
4.550781;-3.718399;-5.326406;-3.957555;-4.204153;-2.855676;-2.807429;-3.329160;-2.744700;
4.554688;-4.624195;-7.576046;-5.191416;-5.643532;-3.752253;-3.880754;-3.958896;-3.818906;
4.558594;0.225889;-1.967460;0.184099;0.999852;-0.395481;0.507078;-0.526435;0.283119;
4.562500;2.903693;2.353049;3.290273;5.067743;1.102813;3.519821;1.153610;2.664179;
4.566406;-0.135786;-0.126088;-0.034228;1.308235;-1.548487;1.248631;-1.289427;-0.525513;
4.570313;-8.613898;-10.925955;-10.104601;-9.905839;-8.124496;-5.892468;-8.079310;-8.150681;
4.574219;-5.065299;-7.745319;-6.676219;-5.826313;-3.761336;-2.468712;-4.384568;-4.378699;
4.578125;5.785780;4.948526;5.769858;7.468856;7.116850;7.519855;5.822598;5.842031;
4.582031;8.485342;8.231600;9.607234;10.080448;9.746915;10.625784;8.417050;8.255287;
4.585938;3.191620;2.008563;4.048472;3.413885;3.807376;6.430429;2.959339;3.320052;
4.589844;-5.230971;-8.509386;-5.999935;-6.773080;-4.493468;-1.346113;-5.339824;-4.083544;
4.593750;-1.410993;-3.903737;-2.241384;-2.269525;-0.877841;0.920278;-2.296681;-0.703223;
4.597656;6.929886;6.462419;7.281893;8.284649;6.592633;7.624388;4.841783;6.569842;
4.601563;3.738330;2.433313;3.814922;5.374025;3.240038;5.466965;1.609181;3.759245;
4.605469;-2.107723;-4.260570;-3.197134;-0.963919;-2.280612;0.948840;-3.728115;-1.650409;
4.609375;-4.886620;-7.022095;-7.000879;-5.076055;-4.320283;-3.327856;-5.803385;-5.047063;
4.613281;-0.130424;-1.054579;-1.607736;-0.711027;-0.067618;-3.226907;-1.717871;-2.586133;
4.617188;3.859075;3.554389;3.586255;3.588204;2.788110;-1.810850;1.010605;-0.146304;
4.621094;-1.445867;-3.007811;-1.871313;-2.752901;-1.917827;-4.398492;-3.371671;-3.739095;
4.625000;-2.048766;-2.446788;-2.605026;-2.348401;-1.902832;-1.371631;-2.044235;-1.734185;
4.628906;2.790031;4.725459;2.294858;4.785914;2.517051;5.177491;3.808265;4.675912;
4.632813;9.914693;13.030669;10.422928;13.242733;8.707478;11.720686;10.162313;11.034670;
4.636719;12.964917;15.644860;14.872168;15.819690;11.888975;13.835000;12.691949;12.683063;
4.640625;4.952243;6.132699;6.060420;5.267381;6.216659;7.271581;6.683723;6.542422;
4.644531;1.780366;5.014400;1.681074;2.286256;5.062496;5.856813;5.489676;6.408880;
4.648438;5.237793;11.386778;5.350476;8.036890;8.815811;9.664693;9.013998;10.563648;
4.652344;8.057074;14.049266;8.966073;11.670029;9.635723;11.739645;9.875545;11.629645;
4.656250;7.027186;10.756471;7.073882;9.740006;5.314973;10.259017;6.563661;9.386129;
4.660156;0.543699;0.711380;-2.207068;1.078636;-2.690962;4.777360;-0.278329;4.145491;
4.664063;3.913588;3.600637;0.895822;4.893949;0.088259;8.141513;2.634275;7.760741;
4.667969;12.332028;13.868914;11.734295;14.912084;8.301208;15.277555;10.040586;14.638456;
4.671875;11.828549;13.660384;12.850882;13.566755;8.937914;13.763294;9.737031;13.075357;
4.675781;5.681066;6.232316;7.166433;5.463775;5.726796;6.304265;5.478562;6.186296;
4.679688;-0.186390;-2.909828;2.029771;-3.281981;4.144994;-2.721476;2.010288;-1.953948;
4.683594;4.976576;1.228948;8.599187;2.054813;9.299689;-1.656155;6.333259;-0.739926;
4.687500;6.391395;5.852692;7.857804;7.820385;4.730412;2.227441;5.089543;1.629930;
4.691406;-9.172618;-6.046870;-13.078642;-4.936137;-15.484778;-5.045736;-10.274290;-6.863834;
4.695313;-19.640732;-14.561197;-25.287031;-16.071686;-24.820000;-12.714191;-18.235176;-13.341477;
4.699219;-15.700397;-10.992884;-19.411001;-14.544897;-17.419519;-11.799397;-12.203096;-11.121758;
4.703125;-2.785372;2.443224;-3.884922;-1.766790;-3.594123;-1.512122;0.272876;-1.498513;
4.707031;3.672285;8.596992;4.378335;5.320842;3.296922;3.860137;5.376606;3.296771;
4.710938;-3.524535;-3.551498;-2.460015;-4.460298;-1.325964;-4.463439;-1.860279;-4.012578;
4.714844;-5.884311;-9.997643;-4.701716;-8.591145;-2.902117;-8.793165;-4.924438;-7.240109;
4.718750;-2.161788;-5.893703;-1.921208;-4.038620;-1.899880;-5.032589;-3.003719;-3.831637;
4.722656;0.790660;0.785836;-0.212623;1.170815;-2.152811;0.133014;-1.338379;0.165917;
4.726563;-1.356219;0.729613;-2.067726;0.207666;-4.010392;-0.615836;-2.507429;-0.843185;
4.730469;-9.241605;-9.981346;-9.058858;-10.023850;-8.299732;-8.250607;-7.527299;-7.847104;
4.734375;-6.982035;-8.457882;-5.841828;-8.395803;-4.307086;-5.827811;-4.175484;-5.585975;
4.738281;0.600412;1.940252;1.517020;1.707244;2.181574;3.258414;2.538778;2.218298;
4.742188;2.518203;5.100466;2.324116;5.428381;2.019558;6.140098;3.276368;4.217501;
4.746094;0.585348;1.225322;0.175574;2.205195;-0.828383;2.334192;0.793333;1.215394;
4.750000;-4.619421;-6.881010;-4.375098;-7.068062;-3.721759;-4.961545;-3.357038;-4.263339;
4.753906;-3.860116;-4.183476;-2.358295;-6.179806;-1.596375;-3.975086;-2.163285;-2.854179;
4.757813;-2.868913;0.370427;-1.569763;-1.271099;-3.035150;-0.573920;-2.184962;-0.927333;
4.761719;-7.392308;-5.391625;-7.501597;-5.360929;-10.399089;-4.399299;-7.699906;-5.458712;
4.765625;-8.510168;-10.274220;-8.708532;-9.225849;-11.589725;-8.643038;-9.225604;-8.505145;
4.769531;-8.230733;-12.713085;-8.153039;-11.323794;-9.059642;-11.041581;-8.718512;-9.967539;
4.773438;-2.728448;-5.633765;-2.152369;-4.246375;-3.243871;-6.392379;-4.135530;-5.880870;
4.777344;1.707873;1.349559;2.571462;2.667790;-0.269579;-2.215313;-0.640284;-2.170594;
4.781250;-4.934412;-6.254436;-4.874084;-5.422204;-6.656863;-8.547764;-6.199393;-7.856896;
4.785156;-10.517760;-12.925150;-10.878726;-12.761801;-11.338927;-13.615422;-10.927966;-12.800196;
4.789063;-9.507545;-12.223922;-9.691463;-11.669735;-10.559302;-11.486019;-10.441013;-12.327825;
4.792969;0.064710;-1.474287;1.051803;0.130703;-2.405001;-0.980585;-2.257477;-3.916807;
4.796875;7.272276;7.257775;9.198266;9.126301;5.280886;7.398831;4.719250;4.096288;
4.800781;0.116335;-0.869514;1.063122;-0.787501;1.645666;1.272724;-0.226591;0.342207;
4.804688;-5.364144;-5.728175;-5.028626;-9.027750;-2.050355;-6.275950;-3.661422;-3.591462;
4.808594;-3.699055;-1.226871;-3.094002;-6.711627;-1.121652;-6.923097;-1.151895;-2.457544;
4.812500;2.256523;7.248463;3.136387;1.723393;3.669541;-0.521452;4.524857;3.619042;
4.816406;5.472246;10.864944;5.581694;6.020658;6.046392;4.537860;7.169526;8.606981;
4.820313;-2.398214;0.336347;-4.403588;-3.453038;-1.906248;-0.926040;-0.581345;3.112695;
4.824219;-4.368897;-2.888509;-6.628517;-4.386168;-4.941357;-1.309694;-3.760413;0.776398;
4.828125;2.465541;4.023115;1.544493;5.001198;0.407668;6.157796;1.359758;5.370255;
4.832031;7.322403;8.430326;7.242640;9.162606;4.953443;10.292453;6.033929;8.408942;
4.835938;6.291245;6.996809;6.523040;5.269592;4.852455;6.895652;6.117156;6.067982;
4.839844;-1.651422;-2.132897;-1.752003;-5.370122;-0.768127;-2.609819;0.080224;-2.178439;
4.843750;-0.921776;-0.021044;-0.586222;-2.886786;1.388701;-2.215639;1.305240;-1.745098;
4.847656;5.626379;9.028315;6.353205;7.169265;7.586720;4.751720;7.005597;4.820886;
4.851563;4.664140;7.222538;4.488281;5.365010;5.213384;3.925056;5.277803;4.499393;
4.855469;0.618227;1.119797;-0.533980;-1.354173;-1.011612;-0.805796;0.242014;0.723713;
4.859375;-3.113361;-4.261856;-5.054008;-6.083778;-6.198205;-4.252027;-4.634928;-2.635343;
4.863281;3.379749;2.364390;1.968468;2.765825;-0.982688;1.888560;-0.296791;2.698449;
4.867188;12.502536;11.133036;11.957142;13.801180;8.014188;9.515969;7.492351;9.611194;
4.871094;7.698473;3.318799;6.633581;6.457623;5.771361;4.392248;4.441690;4.401444;
4.875000;-1.102669;-6.927343;-2.242297;-4.274257;-0.523053;-3.801967;-2.246565;-3.733320;
4.878906;-5.401534;-10.542859;-5.674483;-7.331576;-3.577101;-6.818230;-5.996560;-7.286175;
4.882813;-0.981834;-3.873023;0.424873;-0.328578;1.361189;-1.825534;-2.131766;-3.207009;
4.886719;2.900758;1.551797;5.464598;3.839527;6.136545;1.573671;2.175739;-0.095913;
4.890625;-5.135352;-8.387552;-3.589458;-7.229559;-0.637090;-6.039723;-3.736136;-7.077406;
4.894531;-9.029389;-12.737517;-8.518044;-11.042222;-5.435580;-9.090542;-6.868086;-9.581727;
4.898438;-4.246818;-5.860631;-3.734557;-3.335617;-2.264368;-3.521803;-2.837368;-4.237720;
4.902344;1.947425;2.411844;3.451976;4.057660;3.789711;2.725369;2.702595;1.934266;
4.906250;1.339761;2.232979;3.844314;2.526361;3.941824;1.979867;2.136017;1.718014;
4.910156;-9.942877;-11.459724;-8.226492;-10.857224;-6.489857;-7.848695;-8.450789;-8.243531;
4.914063;-12.139523;-14.369445;-11.225422;-12.532569;-9.608287;-9.210384;-11.458012;-10.788079;
4.917969;-5.121057;-5.745628;-4.529840;-3.502121;-4.435486;-2.410656;-6.151433;-4.901399;
4.921875;-2.131831;-2.003368;-2.156904;-0.322847;-2.755616;0.818037;-4.065120;-1.617403;
4.925781;-2.552621;-3.321953;-3.354733;-1.749089;-4.370369;0.455423;-4.872483;-1.619695;
4.929688;-5.686863;-8.794896;-7.571185;-6.555118;-7.992129;-3.362583;-7.697936;-5.350533;
4.933594;-0.959499;-3.204704;-1.984890;-1.095302;-3.201930;-1.343816;-2.817750;-3.104074;
4.937500;6.190654;6.574979;7.211946;7.107593;5.591276;2.552320;5.051510;1.793669;
4.941406;3.230272;3.096349;4.602747;1.699791;5.554046;-1.884194;4.028058;-1.074587;
4.945313;-1.764363;-2.969382;-1.164572;-5.237568;1.587909;-7.434075;0.113988;-5.367496;
4.949219;-4.190824;-5.219115;-4.493627;-7.327733;-1.608580;-9.672187;-2.613436;-7.363621;
4.953125;1.847327;3.092674;2.195894;1.313426;2.823410;-3.149546;1.872738;-1.592830;
4.957031;7.848736;10.724834;9.230794;9.607837;7.732841;4.337299;7.078785;5.022669;
4.960938;2.514205;3.221071;2.873533;2.779125;2.695170;1.521498;3.009217;2.193581;
4.964844;0.272023;-0.500389;-0.295811;-0.901504;0.304352;-0.213957;1.364982;1.154634;
4.968750;3.123712;3.162212;2.923794;2.474250;3.003269;1.738163;3.917459;3.416834;
4.972656;7.247595;9.511641;8.358165;8.204304;7.273197;5.218575;7.833377;6.321260;
4.976563;7.753919;10.924038;9.292212;9.176547;7.741889;5.677359;8.524411;6.044464;
4.980469;-0.527356;-0.467161;-1.142081;-1.539632;-0.481561;-2.079793;0.644609;-1.778555;
4.984375;-2.199199;-3.612432;-4.352851;-3.313067;-3.026221;-3.691314;-1.908113;-3.200411;
4.988281;2.010970;2.521698;0.448904;3.170487;0.797161;1.458007;1.671400;1.741428;
4.992188;2.934483;5.651745;2.803982;4.326881;2.845405;2.979625;3.051880;3.642276;
4.996094;-0.194244;2.905815;0.314736;-0.681539;1.275651;-1.456852;0.618229;0.640933;
5.000000;-6.490239;-5.719934;-7.024071;-9.160985;-3.742058;-7.732531;-4.545719;-5.099571;
5.003906;-1.871011;-1.561389;-2.339599;-3.274171;-0.100282;-2.146884;-0.316212;-0.833790;
5.007813;6.937630;7.855484;7.187895;7.535948;6.732960;6.614920;6.588326;6.301277;
5.011719;6.504117;5.257456;5.267467;5.472716;5.407456;5.497593;4.354835;4.185817;
5.015625;1.911052;-2.450869;-2.032934;-1.998180;0.114410;0.333509;-1.391975;-1.822711;
5.019531;-3.391875;-9.769916;-8.687737;-9.374106;-5.901673;-5.160267;-6.448407;-7.783114;
5.023438;0.683841;-3.733236;-2.645911;-3.967370;-3.210004;-2.516423;-2.649925;-4.730016;
5.027344;7.109412;5.472441;5.940786;5.211350;2.481556;3.376926;2.795816;1.610554;
5.031250;3.742751;1.205155;1.887678;2.030274;0.325801;2.493966;-0.380335;0.593376;
5.035156;0.803975;-2.684185;-2.019850;-0.846062;-1.470575;1.861150;-2.456573;0.025336;
5.039063;0.663522;-2.203672;-2.231643;-0.355043;-1.177258;2.449667;-1.527051;1.445086;
5.042969;5.256705;4.525312;3.188954;5.911859;2.865289;6.359130;3.244883;6.286575;
5.046875;7.747912;8.359713;6.539661;9.914857;5.312904;8.552271;5.766948;8.509577;
5.050781;-0.221536;-1.596323;-1.603702;0.430844;-0.999251;2.187177;-1.015450;1.370275;
5.054688;-3.388620;-6.018500;-4.224042;-3.615493;-3.580194;0.129099;-3.723443;-1.497460;
5.058594;-0.312287;-1.858544;-0.033271;0.743673;-0.676426;3.706225;-0.741945;1.263868;
5.062500;3.041794;4.195047;4.042015;5.862078;3.232063;7.366650;2.731102;4.162941;
5.066406;2.360335;4.699427;2.855373;5.262979;3.540648;6.445057;2.492660;3.261626;
5.070313;-5.465065;-6.419523;-7.032868;-4.650138;-3.363562;-1.144913;-4.409973;-3.663299;
5.074219;-4.816164;-7.458327;-6.649136;-3.073408;-3.441916;-1.220641;-4.098667;-3.087122;
5.078125;1.881802;1.097745;2.282405;5.408193;2.561275;2.717346;1.952764;2.217922;
5.082031;2.274673;3.073234;5.039403;3.900458;3.893796;-0.179775;2.853983;1.627668;
5.085938;-3.600906;-2.731543;-0.325381;-4.295606;-0.932728;-6.300577;-1.932356;-3.128156;
5.089844;-12.142179;-11.995467;-10.577631;-12.811884;-9.050373;-10.735754;-9.228015;-7.938969;
5.093750;-8.742843;-6.535666;-7.583134;-5.610417;-6.918780;-3.989698;-6.605873;-2.398826;
5.097656;0.013290;4.165657;2.146363;6.681386;-0.007852;5.566688;-0.099146;5.447320;
5.101563;0.448376;3.025494;2.328475;6.234931;0.235494;6.625107;-0.205708;4.915825;
5.105469;-1.909286;-0.514166;-0.860492;1.613237;-0.612712;4.887617;-0.805684;2.990521;
5.109375;-6.451582;-5.118526;-5.812757;-4.684861;-2.989639;0.161746;-3.152959;-0.611328;
5.113281;-5.406391;-3.076586;-3.595929;-2.854205;-2.087147;-1.481758;-2.934416;-1.289853;
5.117188;-0.606165;1.688745;2.340597;3.415422;0.939995;0.315995;-0.622513;0.323445;
5.121094;-1.479169;-1.899562;0.693434;0.983116;-0.297205;-0.555273;-1.725711;-1.520827;
5.125000;-0.280283;-1.517491;1.050987;0.954701;1.086253;1.503608;0.650075;-0.074796;
5.128906;2.726742;3.138370;3.796499;4.083695;4.016327;4.013434;4.729456;3.029425;
5.132813;8.605235;11.792363;10.774018;10.609340;9.343238;7.704690;10.727741;8.125053;
5.136719;11.535447;16.042925;15.076018;13.243324;12.604315;9.210997;13.741593;10.509733;
5.140625;2.111158;4.442792;4.874736;1.223302;4.914613;0.811716;5.357134;1.962628;
5.144531;-3.294597;-1.518829;-1.328698;-4.399015;-0.790207;-4.291100;-0.241435;-3.223229;
5.148438;1.367561;5.266560;3.518847;2.546473;1.829854;-0.335304;3.385622;1.624033;
5.152344;9.963659;16.537935;12.164169;12.933019;8.860537;8.730208;11.668193;11.706789;
5.156250;12.098460;19.330082;12.999806;15.222636;10.452761;13.280071;14.357869;16.160259;
5.160156;1.166017;4.683061;-0.538325;1.988779;-0.068749;4.980517;3.961460;6.871493;
5.164063;-2.250088;-0.858249;-4.229384;-1.586247;-3.960401;0.946150;-0.925145;2.064955;
5.167969;4.600671;7.562556;4.622733;7.243304;2.632144;5.887791;4.693565;7.119731;
5.171875;9.114329;13.662757;10.590804;11.508101;8.420700;9.579655;10.194139;11.612245;
5.175781;8.778824;13.427240;10.311323;9.417153;9.826096;9.305517;11.494971;11.739547;
5.179688;1.802310;4.842556;1.985816;1.676860;4.589522;4.563133;5.852722;6.065573;
5.183594;0.202675;3.575722;-0.067718;2.887967;2.612328;4.356472;3.697598;4.670507;
5.187500;2.319256;6.502120;2.558065;6.936161;3.068801;4.413239;4.316316;4.928491;
5.191406;-1.304433;1.093629;-1.186398;0.538650;-0.876144;-1.382909;0.181953;0.002765;
5.195313;-4.549485;-3.362461;-4.811225;-4.961149;-4.085168;-3.989581;-3.112375;-2.437349;
5.199219;-5.220546;-4.143678;-5.897470;-5.789100;-5.102452;-2.420223;-3.529642;-1.017312;
5.203125;2.767278;5.150533;2.933691;3.328833;1.567816;5.299957;3.643643;6.771936;
5.207031;8.380436;11.285355;9.273718;9.248059;6.343103;9.073130;7.920608;10.272043;
5.210938;-2.000984;-1.822839;-2.259735;-3.416441;-2.597799;-1.614835;-2.297249;-1.127501;
5.214844;-10.047812;-11.370365;-10.731659;-12.363532;-9.232790;-10.640750;-9.858794;-10.303950;
5.218750;-6.828171;-7.587649;-6.830607;-8.644395;-6.154738;-10.071770;-7.053562;-9.100611;
5.222656;2.713713;2.919714;3.524554;1.431580;1.387885;-2.899510;0.236472;-1.937349;
5.226563;5.417081;4.851850;6.261096;3.919732;2.346946;0.623647;0.912788;0.063583;
5.230469;-5.387529;-9.338693;-5.859341;-9.167684;-7.076931;-6.542517;-8.505320;-8.718320;
5.234375;-9.446298;-13.729556;-10.040753;-13.359655;-8.912457;-9.497073;-10.278024;-11.625311;
5.238281;-4.630413;-6.417721;-3.633807;-6.333751;-2.929549;-6.647993;-4.740860;-7.483828;
5.242188;-0.275460;-1.013260;2.501547;-0.795230;1.347155;-4.368203;-1.127518;-4.374396;
5.246094;0.097774;-1.898114;2.584134;-1.295427;1.025818;-4.068531;-1.444020;-4.293490;
5.250000;-7.067668;-11.227064;-7.826972;-10.547071;-5.939419;-7.960432;-7.633892;-8.819613;
5.253906;-7.748497;-10.534295;-10.320629;-9.401143;-7.561692;-5.354637;-8.320228;-6.753288;
5.257813;-2.239964;-2.756784;-4.052697;-0.171235;-4.238023;1.191303;-4.689291;-0.520775;
5.261719;-0.784020;-1.816933;-2.015087;1.710014;-3.284810;2.891817;-4.088250;1.075430;
5.265625;-1.709681;-3.902905;-3.165126;-0.490651;-2.499835;2.267588;-3.510246;0.429938;
5.269531;-5.581198;-9.155871;-7.316802;-6.409468;-3.788231;-2.309444;-4.889640;-3.697919;
5.273438;-3.276128;-5.653274;-3.148855;-4.937688;-0.171135;-4.477746;-1.878284;-4.061399;
5.277344;0.888030;0.889850;3.098484;-0.707692;4.801678;-5.095829;2.452920;-2.466403;
5.281250;-3.309160;-4.339324;-2.441166;-5.691965;0.911175;-8.535002;-0.932603;-6.168288;
5.285156;-6.305257;-9.743116;-8.443855;-8.347000;-4.689693;-7.679790;-5.240529;-8.265067;
5.289063;-5.934115;-11.283378;-9.720776;-7.592742;-7.857906;-5.389690;-8.068232;-8.271797;
5.292969;-0.505062;-4.894042;-2.805809;-1.282659;-4.724382;-1.607969;-5.618639;-4.406657;
5.296875;2.298723;0.183643;2.100356;2.346259;-1.959461;-0.797335;-3.100291;-2.619523;
5.300781;-5.771529;-8.372483;-6.249648;-7.695890;-7.418609;-8.793072;-8.202576;-9.778773;
5.304688;-9.527552;-12.017573;-9.984439;-12.552409;-8.578392;-12.888341;-9.384967;-12.829412;
5.308594;-7.199192;-7.937267;-6.158964;-9.077598;-4.975988;-11.062680;-6.234637;-10.394459;
5.312500;-1.754739;-0.635674;0.575620;-1.763067;-0.333731;-5.166573;-1.398731;-5.322944;
5.316406;1.992900;3.246694;3.647509;2.124593;2.214759;-0.444600;1.955358;-1.622068;
5.320313;-4.195616;-5.193215;-4.356680;-7.397378;-2.058053;-5.584816;-2.336557;-6.032012;
5.324219;-5.109863;-5.346916;-4.442687;-9.207232;-0.970221;-7.368721;-1.866660;-5.823114;
5.328125;2.231277;4.655193;4.828331;0.661146;5.133521;-1.828433;4.579175;1.073738;
5.332031;8.850189;11.463496;11.368731;8.672685;9.107429;4.023790;9.532549;6.882225;
5.335938;9.790711;10.399850;10.494332;8.563320;9.145402;5.560595;9.929841;7.579537;
5.339844;2.140281;-0.117340;0.551437;-1.707936;2.507409;-0.459015;3.137427;0.872709;
5.343750;2.905281;1.052544;1.353703;-0.429774;2.309231;0.202585;2.819491;1.358374;
5.347656;10.963016;10.668372;10.693927;10.369015;7.793972;7.963676;8.178578;8.915429;
5.351563;11.437863;10.011972;10.619596;12.116068;6.856872;11.873107;7.564423;11.774023;
5.355469;6.189070;3.360933;3.279171;7.662442;0.804398;11.167869;3.001574;9.859761;
5.359375;-0.485789;-3.829588;-5.146526;0.823616;-6.134848;5.314319;-2.401030;4.494939;
5.363281;3.655797;2.866234;0.410661;6.074522;-1.880089;6.397503;1.700926;7.092733;
5.367188;12.062377;14.184599;11.196920;15.771087;7.796618;13.090366;10.039207;13.841788;
5.371094;9.348570;9.789310;8.089476;10.552230;7.642694;11.674036;8.813908;10.841180;
5.375000;4.053863;1.465727;1.743174;2.842213;3.601625;6.861488;3.980434;4.162893;
5.378906;5.156564;2.424801;5.164990;5.859673;4.275023;5.580348;3.340666;1.980946;
