Time (s);FP1;F3;Fz;F4;T3;C3;Cz;C4;Sampling Rate
0.000000;2.001312;1.667306;2.733582;1.133608;4.796740;1.894430;3.274954;1.026810;256
0.003906;-4.039235;-7.269379;-3.534059;-6.645387;4.949230;-4.381257;-4.126061;-5.651760;
0.007813;-1.598107;-5.085400;-1.405758;-3.503096;3.118619;-1.888345;-3.388791;-3.498507;
0.011719;5.058020;3.030363;5.414172;5.123382;4.349525;4.692604;2.128897;2.977902;
0.015625;5.856263;4.268644;5.930719;7.311081;3.477782;6.118480;2.619280;4.058838;
0.019531;-4.529313;-8.000782;-6.476887;-4.190449;-7.464768;-1.863625;-6.948527;-4.310512;
0.023438;-4.684320;-7.406335;-7.207621;-5.241209;-9.529882;-1.166509;-6.326668;-2.923503;
0.027344;7.399092;7.437408;6.136136;6.921636;1.168560;8.804963;6.352312;8.940188;
0.031250;15.534962;17.054054;15.361064;15.092046;9.590996;14.474959;14.802333;16.149954;
0.035156;12.535316;13.698396;12.416548;12.651849;8.045537;11.884136;11.597764;13.384631;
0.039063;2.670608;1.560869;1.646403;2.969879;0.424340;5.301735;1.825003;5.496796;
0.042969;3.142246;2.380939;2.889451;4.142879;2.251728;6.800160;2.598522;6.416476;
0.046875;6.926503;8.754541;8.093229;8.272132;7.719791;7.910675;7.083766;8.464517;
0.050781;1.356688;4.073605;2.353269;1.320010;4.612227;-0.444009;2.460855;1.375627;
0.054688;-6.563775;-4.850751;-6.471934;-7.601812;-3.593136;-8.680717;-4.977840;-6.873576;
0.058594;-11.381806;-11.731953;-12.410179;-12.560294;-12.562943;-11.862130;-9.584654;-11.202394;
0.062500;-4.544981;-3.906130;-5.087208;-4.544796;-9.778434;-5.003596;-3.074548;-5.103188;
0.066406;4.514228;7.101541;5.502925;4.982519;2.841338;2.367151;5.620255;2.186119;
0.070313;0.735792;1.542728;2.150832;-0.910581;7.369404;-2.146053;1.941610;-2.461160;
0.074219;-8.624805;-9.504880;-7.604475;-11.097491;-2.157217;-10.965565;-7.249177;-11.188460;
0.078125;-14.293812;-14.665774;-14.525236;-15.829871;-16.511118;-15.643592;-12.963445;-14.962396;
0.082031;-6.682323;-5.042877;-7.071063;-7.495205;-15.007886;-8.665587;-6.875241;-6.867834;
0.085938;1.849275;3.904072;2.564105;0.615085;-3.394144;-1.409525;-0.163073;0.332679;
0.089844;-5.592277;-6.975429;-4.799399;-8.234646;-1.148315;-8.195215;-7.205051;-7.813623;
0.093750;-12.582085;-16.449522;-11.725410;-14.480827;-2.393711;-13.898419;-12.921725;-14.665734;
0.097656;-10.073849;-13.430961;-8.979502;-10.109081;-2.773450;-10.222069;-10.290639;-11.216181;
0.101563;-3.815674;-4.750427;-2.492227;-3.555667;-2.608824;-3.638978;-5.015949;-4.503108;
0.105469;-3.190441;-3.182486;-2.409505;-4.324860;-5.960660;-4.111583;-4.752075;-4.862244;
0.109375;-10.723834;-13.683170;-12.047869;-13.884277;-13.616257;-12.527904;-11.366305;-13.116539;
0.113281;-9.329118;-13.178221;-10.740710;-11.973041;-8.842848;-11.920058;-9.687497;-11.955315;
0.117188;-0.209220;-1.651698;0.445668;-1.512322;3.769814;-3.635626;-0.796089;-2.695089;
0.121094;5.709739;5.887150;7.334058;3.833756;7.701863;2.277184;5.778845;3.798577;
0.125000;5.909453;5.149563;6.847020;3.074709;3.879924;3.787563;6.929190;4.880258;
0.128906;0.406359;-3.477422;0.103909;-2.706777;0.237384;0.319385;1.223991;0.754749;
0.132813;2.555399;-1.418449;2.422661;1.688619;4.936968;2.858327;1.517210;3.216254;
0.136719;8.838384;6.951100;8.630138;10.420118;8.573907;8.697382;6.190971;8.825019;
0.140625;7.472842;5.341014;5.730445;8.284696;4.649022;7.900634;4.403411;7.359866;
0.144531;1.704738;-1.546345;-0.635883;1.142927;0.227428;2.712722;-1.179994;2.067408;
0.148438;-5.116252;-8.665398;-6.937590;-5.377432;-6.168958;-3.864928;-7.039053;-3.972881;
0.152344;-1.621603;-2.314420;-1.945915;0.835666;-8.221390;-1.117302;-3.037779;-0.350859;
0.156250;5.970339;8.127657;6.626369;10.126014;-4.444570;5.034913;4.828121;6.986822;
0.160156;2.438589;2.843583;2.737902;4.213288;-1.541972;1.162576;2.903126;3.091774;
0.164063;-3.213090;-5.104212;-2.332610;-3.355885;1.736211;-3.042362;-1.580373;-3.499413;
0.167969;-4.321375;-6.505075;-3.069706;-3.713673;1.556091;-1.216036;-3.664677;-4.313630;
0.171875;3.149996;2.924154;3.741988;5.732661;3.242671;7.418347;1.990209;4.139633;
0.175781;10.274632;11.531571;9.817700;13.369787;7.623139;13.070376;8.834368;11.551855;
0.179688;2.946606;2.140868;0.956201;3.958102;3.338724;5.419563;2.380213;4.998611;
0.183594;-5.018791;-6.940225;-7.409107;-4.256169;-3.971423;-1.407725;-5.839447;-2.319151;
0.187500;-4.218307;-5.136774;-6.079488;-1.731095;-7.669429;-0.104719;-5.644158;-1.875431;
0.191406;3.135544;3.276469;2.153000;6.492102;-5.384945;6.221412;1.877463;4.069658;
0.195313;7.825028;7.367437;7.222656;10.209829;-0.074506;9.522150;7.390496;7.424934;
0.199219;1.475848;-1.568772;0.152541;1.233220;2.100299;3.205645;2.765321;1.802696;
0.203125;-1.710985;-3.716222;-2.055751;-1.614495;5.282569;0.462335;1.209851;0.061985;
0.207031;-0.550684;1.217567;0.769540;2.398052;2.595076;1.724770;3.187497;1.686039;
0.210938;-2.240479;1.443405;-0.723419;1.205941;-6.512548;-0.432021;1.967814;-0.267813;
0.214844;-4.483765;-1.107487;-3.386551;-3.110823;-8.513364;-3.489592;0.111776;-2.718656;
0.218750;-7.002916;-6.328421;-6.747788;-8.036095;-2.761300;-5.893227;-3.295096;-5.166380;
0.222656;-1.063514;-0.910066;-0.524029;-0.879249;6.199394;0.007381;-0.202355;0.173812;
0.226563;5.482964;8.173630;6.782923;8.416581;7.110631;6.442834;5.149397;6.810098;
0.230469;0.279061;4.264772;1.501543;2.180652;1.103675;1.843818;2.409386;2.723327;
0.234375;-7.940407;-4.662006;-6.510971;-8.696280;-0.310751;-6.276465;-3.246283;-5.837387;
0.238281;-11.300189;-10.598306;-10.207541;-12.813860;-2.339545;-9.652141;-7.181100;-10.619120;
0.242188;-0.643942;-0.724418;-0.129755;0.113516;-0.093527;0.870604;0.379787;-0.917164;
0.246094;11.679399;12.695403;11.505328;13.909103;6.558569;12.714526;11.098378;11.936804;
0.250000;6.665226;6.642434;5.177176;6.297698;5.531381;7.203050;7.531828;8.118638;
0.253906;-1.482970;-2.386299;-3.396725;-3.834907;1.251965;-1.944387;0.967833;-0.364987;
0.257813;-1.539678;-1.585094;-3.209848;-3.374244;-1.847146;-2.916560;0.903760;-1.468683;
0.261719;4.394065;6.328203;3.703026;4.086527;-0.436897;2.014644;5.753104;3.405744;
0.265625;5.364130;7.703674;5.213313;5.752068;1.404462;2.629472;6.451581;3.868517;
0.269531;-2.613658;-2.838790;-3.998570;-3.895386;-0.576826;-3.866059;-0.758321;-2.890274;
0.273438;-0.841194;-0.807575;-2.219873;-2.552741;4.951662;-1.047304;0.698001;0.285386;
0.277344;7.864639;10.858857;7.573829;7.471697;10.913757;7.373293;8.555563;9.335838;
0.281250;9.370916;13.257048;9.305120;9.792059;7.405661;8.138036;9.451490;9.855189;
0.285156;3.152941;4.759076;2.201782;3.517541;0.668997;1.369023;2.448679;2.695884;
0.289063;-4.979788;-6.982474;-7.710337;-5.937190;-3.644083;-6.499747;-5.926264;-4.277313;
0.292969;-1.910172;-3.722468;-4.439666;-2.459415;0.010618;-2.580582;-2.854328;-0.011851;
0.296875;4.234236;4.504966;3.265369;5.718731;1.164851;6.032016;3.232399;6.153216;
0.300781;2.547860;2.621257;1.900511;4.499533;-6.214899;6.972695;1.620754;4.483435;
0.304688;-0.500930;-1.625030;-1.586015;0.388433;-9.332066;3.686318;-1.246313;1.305588;
0.308594;-1.889523;-4.662985;-3.483856;-2.820408;-3.125589;0.425766;-2.521260;-0.904367;
0.312500;4.930448;2.700969;4.391696;4.204157;9.773492;4.950292;3.240203;3.937954;
0.316406;10.278662;9.875677;11.013939;10.810002;11.850062;8.345892;7.577792;8.133772;
0.320313;2.455882;2.166843;2.865316;2.110047;-2.135318;-0.338079;1.021835;1.077861;
0.324219;-5.928835;-5.509842;-5.217918;-7.264052;-9.392899;-9.243043;-4.721748;-7.030502;
0.328125;-7.583840;-6.046899;-6.045598;-9.121316;-3.820797;-10.461169;-5.036340;-9.353203;
0.332031;-0.355754;2.305445;1.974989;-0.841682;6.921322;-2.159297;0.380913;-3.062827;
0.335938;5.060583;7.263640;7.648752;5.799517;10.954094;3.983027;3.489938;2.209296;
0.339844;-0.408569;-1.632125;1.023509;-0.381400;5.031708;-0.816249;-1.499622;-2.023098;
0.343750;-2.634355;-5.350665;-2.155884;-2.553046;3.012746;-2.781214;-2.124607;-3.637536;
0.347656;-0.833268;-1.866964;-0.746405;0.050889;2.677465;-1.429368;0.412506;-2.275441;
0.351563;1.538972;4.118148;2.606924;2.434479;0.925044;-0.777390;2.767964;-0.345309;
0.355469;1.321281;6.405838;3.589511;1.261214;-0.740450;-2.242685;2.857361;0.141466;
0.359375;-5.363477;-2.169776;-4.850201;-7.334535;-4.967442;-7.284198;-3.097492;-4.909366;
0.363281;-4.186464;-1.996174;-5.259877;-5.476506;-3.207585;-4.195984;-2.243591;-3.651448;
0.367188;2.890344;6.222434;3.166352;3.738065;2.994264;2.659081;3.696515;2.579592;
0.371094;5.500280;8.984409;7.950146;6.350057;6.510902;3.570222;5.157281;5.225793;
0.375000;2.819808;5.775674;4.890757;2.464095;4.108173;0.049163;1.981110;3.543989;
0.378906;-4.367165;-2.371432;-5.309206;-5.869794;-2.791090;-5.271328;-4.751965;-2.363804;
0.382813;-2.905077;0.199119;-4.095978;-3.315710;1.035829;-2.059808;-3.253339;-1.306720;
0.386719;3.061891;7.500659;4.117195;4.220552;8.519462;3.880458;2.601025;3.571272;
0.390625;2.378665;5.148029;3.479185;2.813603;4.546208;3.505450;2.126851;2.886678;
0.394531;-0.009735;0.274147;-0.853367;-0.518684;-2.414698;2.385986;-0.619438;0.413283;
0.398438;-2.567042;-3.777202;-4.703855;-3.687787;-3.355584;0.053884;-3.762769;-2.861863;
0.402344;0.378031;1.240831;-0.085650;-0.021446;3.809379;0.339280;-1.186347;-1.077175;
0.406250;2.301249;5.603631;3.683669;2.795223;4.854993;-0.129715;0.972617;0.438812;
0.410156;-5.015731;-3.484666;-4.652921;-6.126944;-6.810834;-7.148899;-5.734631;-6.244262;
0.414063;-10.668061;-11.009147;-11.515358;-12.860545;-14.989829;-12.553067;-11.185592;-11.674203;
0.417969;-12.217862;-12.602662;-12.992167;-13.609329;-15.616367;-14.618188;-12.961089;-13.305431;
0.421875;-5.753059;-4.652151;-5.067012;-5.600604;-7.237232;-8.680633;-7.614124;-7.545550;
0.425781;3.732963;5.960553;5.468180;4.028646;3.884112;0.954442;1.072845;1.193055;
0.429688;2.232323;2.476544;2.698992;0.122605;2.975446;0.948442;0.357621;0.183821;
0.433594;-2.706105;-4.368301;-3.362127;-5.526372;-3.610745;-2.671355;-4.033810;-4.352466;
0.437500;-4.811960;-6.601772;-5.483020;-6.240044;-5.823433;-4.877342;-6.190453;-6.364869;
0.441406;-0.851067;-1.141261;-0.648348;-1.041457;-0.205405;-2.838016;-2.094958;-2.404169;
0.445313;3.242055;3.903824;3.918650;3.409134;1.788529;-0.183451;1.893936;1.685561;
0.449219;-3.657849;-5.202413;-4.574101;-4.623179;-8.920522;-5.197729;-5.151192;-4.225873;
0.453125;-5.661817;-7.899696;-6.911662;-5.743298;-9.375319;-4.603159;-6.858633;-5.489000;
0.457031;3.094601;2.515067;3.504841;5.543428;5.099617;4.944169;2.548738;3.080869;
0.460938;10.945011;11.406231;12.154602;13.647815;14.205407;12.161697;10.328640;10.715359;
0.464844;10.986829;11.489771;11.281134;11.980516;10.638209;11.364696;9.773801;11.200677;
0.468750;2.554977;1.903216;0.870916;1.490118;0.592655;3.105791;1.555510;3.785818;
0.472656;1.488352;2.352393;-0.187954;1.074224;-0.439408;2.243063;0.892556;2.614680;
0.476563;6.914998;10.880509;6.863755;8.485572;3.856941;7.919917;6.964100;7.777605;
0.480469;6.615341;10.244649;6.951398;7.575647;1.673782;7.813925;7.549667;8.175362;
0.484375;2.668661;3.916777;2.500285;2.215154;-2.807403;3.123557;3.410459;4.118494;
0.488281;-2.736777;-3.602667;-3.559158;-3.597077;-5.681339;-2.377295;-2.690787;-2.162510;
0.492188;0.495250;0.217752;0.331301;1.078881;0.081298;1.215778;-0.117552;-0.025339;
0.496094;6.331724;7.028810;6.988938;8.319094;6.982624;7.219736;5.018088;5.344372;
0.500000;1.440941;-0.006812;0.893321;2.295591;2.707476;2.587632;-0.379685;1.147596;
0.503906;-1.910673;-4.440726;-3.748073;-1.941964;-1.707707;-1.264714;-3.952942;-1.707137;
0.507813;1.476320;0.616379;-0.498254;1.385478;-0.035288;1.703079;0.199634;2.251131;
0.511719;9.370493;11.691864;8.967922;9.603005;6.689273;9.606629;9.212487;10.831678;
0.515625;12.366611;16.226576;13.288480;12.863942;9.359807;13.119465;12.836181;14.567501;
0.519531;2.755115;4.429373;2.095380;1.922964;0.819374;4.872724;3.891083;6.280062;
0.523438;-1.923328;-0.759338;-3.721248;-2.651397;-3.086374;0.579327;0.103120;2.022242;
0.527344;2.619469;5.414181;2.015853;3.510536;0.916800;4.209598;5.711579;5.629826;
0.531250;8.365241;11.884634;9.262067;9.457666;4.448670;8.456459;11.763753;9.570751;
0.535156;8.464351;10.955739;8.897946;7.961954;2.901229;7.545901;11.251473;8.135298;
0.539063;-0.545818;-1.083032;-2.062249;-3.473256;-3.763886;-0.959195;1.493578;-0.743503;
0.542969;-1.341545;-2.299774;-2.570237;-3.383435;-3.552657;-1.153298;-0.728773;-0.842672;
0.546875;6.466667;7.017765;5.861638;7.434022;0.168113;7.184500;5.224246;7.770177;
0.550781;9.636441;9.429841;7.964668;10.820332;3.241376;10.543166;6.851422;11.364774;
0.554688;6.018459;4.086978;4.383276;5.704787;7.610927;6.514281;2.980125;7.577988;
0.558594;-2.673450;-5.771742;-3.524825;-3.745857;3.590711;-1.652893;-4.293363;-0.367412;
0.562500;-1.455801;-3.436948;-1.606388;-0.876552;0.037239;-0.477692;-2.586402;1.188398;
0.566406;5.884925;4.508729;5.659015;7.967468;3.623547;6.002292;3.808158;7.812835;
0.570313;3.377925;-0.264141;2.356144;4.063757;4.104375;3.779834;1.280265;5.024319;
0.574219;-4.039331;-8.728183;-4.729706;-4.445732;-0.891477;-3.288490;-4.943923;-2.448468;
0.578125;-10.054751;-13.922221;-9.940202;-10.117195;-8.148518;-9.683488;-9.821939;-8.624969;
0.582031;-6.464871;-8.115337;-4.787528;-4.899933;-5.099152;-6.649769;-5.900219;-5.873586;
0.585938;-0.647295;-1.308221;2.358138;2.029966;3.410335;-0.346052;0.354211;-0.887160;
0.589844;-4.954477;-8.253047;-3.083754;-4.102427;0.804279;-3.181565;-3.504166;-5.075230;
0.593750;-6.612660;-11.293932;-6.306705;-7.021223;-4.542567;-4.460105;-6.037471;-6.877861;
0.597656;-3.312519;-6.792801;-3.509759;-3.263218;-5.105349;-1.806332;-3.461162;-3.888274;
0.601563;-1.755847;-3.149979;-1.042248;-1.049497;-2.573294;-1.436723;-1.034983;-2.318099;
0.605469;-7.054825;-7.584773;-5.446136;-6.411085;-4.963605;-7.631893;-4.734185;-6.823232;
0.609375;-17.744898;-20.393160;-16.828465;-18.730640;-13.460451;-17.670486;-14.784601;-16.295382;
0.613281;-14.973903;-18.396235;-13.757167;-16.089354;-9.518492;-14.141489;-13.261571;-14.429719;
0.617188;-2.875958;-5.184918;-0.530874;-2.859106;2.904741;-2.100284;-2.267917;-4.402653;
0.621094;1.934243;0.257392;4.663222;1.942993;7.384970;2.157359;2.762993;-0.186146;
0.625000;-3.903894;-5.655493;-1.878564;-4.445697;0.393205;-3.263700;-2.756906;-4.865596;
0.628906;-15.824018;-18.525843;-16.079252;-17.032282;-14.503240;-12.985494;-14.730880;-14.994485;
0.632813;-15.852180;-17.301613;-16.930431;-15.635818;-18.910460;-12.316546;-15.095244;-15.015282;
0.636719;-6.855402;-6.802401;-7.019404;-4.853926;-11.566947;-4.426797;-5.931964;-7.154314;
0.640625;-4.297584;-5.723929;-4.352150;-3.436189;-6.736957;-2.025048;-2.938679;-5.005491;
0.644531;-8.472154;-11.508679;-8.925074;-9.395126;-6.129823;-5.971124;-7.394524;-9.556387;
0.648438;-15.897434;-19.456713;-16.417963;-17.664379;-8.129247;-14.622638;-15.085977;-17.676685;
0.652344;-13.201614;-14.834239;-12.199930;-13.725412;-5.968213;-14.793319;-12.559084;-16.164366;
0.656250;-5.459986;-5.396204;-3.577990;-4.556965;-4.843503;-8.156096;-4.999600;-9.010799;
0.660156;-7.570039;-9.966689;-7.276221;-8.134071;-9.950858;-8.458855;-7.266188;-10.783993;
0.664063;-10.395940;-15.517283;-10.908232;-12.288776;-10.034682;-9.894276;-10.814346;-13.907067;
0.667969;-8.615941;-13.878371;-8.613131;-9.981989;-6.803634;-7.427412;-9.550912;-11.949393;
0.671875;-1.482639;-3.794995;-0.437186;-1.069886;-2.606021;-0.395714;-2.287235;-3.912785;
0.675781;2.033548;2.185614;3.521968;3.230743;-1.290243;1.511014;1.671788;0.165799;
0.679688;-5.126667;-7.090959;-4.554585;-6.051333;-4.871055;-6.976407;-5.267623;-6.855202;
0.683594;-5.117330;-8.994559;-4.427800;-7.030057;1.082808;-6.834318;-5.770177;-7.798254;
0.687500;3.104669;-0.019023;4.312029;2.492660;10.468147;2.935637;2.207579;-0.408994;
0.691406;8.131114;6.927316;9.048206;9.250584;10.568446;8.988185;7.157455;5.070249;
0.695313;5.354289;4.822117;5.244746;7.169139;2.978689;6.146005;3.992986;3.783754;
0.699219;-3.374372;-6.456369;-5.231055;-3.297281;-6.438315;-1.992893;-4.675840;-3.301479;
0.703125;-4.965405;-8.712210;-6.647563;-5.084896;-8.247710;-3.286843;-5.645436;-4.999406;
0.707031;-3.775946;-5.625229;-3.725013;-2.029006;-8.840249;-2.887838;-3.302816;-4.737445;
0.710938;-3.534562;-4.765049;-2.208070;-1.653750;-9.049071;-3.851260;-2.732312;-4.967237;
0.714844;-0.803491;-2.692533;0.764156;-0.338618;-1.434869;-1.406660;-0.781456;-2.335822;
0.718750;-2.482258;-5.330879;-2.221398;-3.474167;4.740697;-1.705886;-2.363282;-3.458601;
0.722656;0.310319;-0.512684;0.122131;0.367316;8.205019;1.505917;1.018343;-0.711035;
0.726563;7.919643;10.199909;8.223209;9.659129;10.314082;8.014544;9.479310;6.927509;
0.730469;8.232553;10.535126;8.273602;8.918804;9.114470;7.613673;11.143683;8.537539;
0.734375;1.886805;3.059619;1.718079;1.109003;4.694393;0.372129;5.107252;3.327839;
0.738281;-5.987607;-5.281275;-6.361933;-7.545424;-5.175221;-10.472184;-3.701752;-4.189878;
0.742188;-0.722045;2.069904;-0.602462;-1.440617;-6.989479;-8.665850;0.179719;0.302844;
0.746094;10.215257;14.586327;10.648993;11.172489;1.208839;4.994891;10.382869;10.315555;
0.750000;6.867229;8.592745;6.103422;7.577664;3.933225;9.069201;7.263008;6.975894;
0.753906;-0.241762;-0.549494;-1.208873;0.130710;3.038872;3.954020;-0.076984;-0.526976;
0.757813;-0.818456;-0.357937;-0.271322;-0.275601;3.829585;-0.105355;-1.308629;-1.955384;
0.761719;5.444934;8.054008;7.731835;6.421629;6.471359;3.724552;4.804786;3.516291;
0.765625;8.573982;11.226727;10.081400;9.585696;3.189439;7.132109;7.968481;6.710107;
0.769531;1.376534;0.462379;-0.573382;0.589503;-6.090305;0.705430;-0.175561;1.042579;
0.773438;-0.007365;-1.488570;-2.696443;-1.170018;-2.671088;-1.308293;-3.012518;0.486467;
0.777344;4.760873;6.402791;4.429857;4.891356;7.748988;3.479197;2.146331;4.695725;
0.781250;6.127275;9.999428;7.205128;6.737899;8.178180;5.831763;4.511250;5.420165;
0.785156;3.506842;6.483693;3.695045;3.351614;2.249491;2.708851;1.278913;2.905371;
0.789063;-1.313743;-1.634441;-2.831964;-3.246604;-0.643091;-3.647351;-3.949917;-0.858457;
0.792969;0.703770;0.830623;-0.495416;-0.550822;1.693941;-2.444852;-0.996501;1.969466;
0.796875;2.870109;6.098788;2.432760;3.670919;-0.562453;1.192047;1.998813;4.490965;
0.800781;0.387916;3.842886;-0.425550;0.646768;-2.709312;0.803556;-1.217317;1.825044;
0.804688;-0.832985;0.953229;-1.528013;-2.576606;2.493124;-0.996852;-3.254786;-0.236083;
0.808594;-4.466706;-3.955466;-4.628256;-7.567470;2.400900;-7.022776;-5.462012;-4.378486;
0.812500;-2.128533;-0.048469;-1.019425;-3.445323;0.774743;-6.459683;-1.563272;-2.987676;
0.816406;5.611608;8.851478;6.997783;6.632186;3.028362;2.259695;5.873147;3.993743;
0.820313;7.690076;8.348660;7.022035;7.678611;4.094292;7.092406;6.753937;6.978507;
0.824219;7.084423;5.899727;5.131744;5.984316;5.507955;7.680411;5.189319;7.851652;
0.828125;4.953776;4.220387;3.599271;4.354548;5.268513;5.390581;3.226477;6.918281;
0.832031;7.705326;9.110033;8.083404;8.424985;6.895520;7.085529;6.319696;9.150525;
0.835938;10.007277;12.237465;10.737151;10.856545;6.972243;8.090782;8.610992;9.434237;
0.839844;2.402360;1.942510;1.395765;1.058365;0.927249;0.763887;1.358636;0.949793;
0.843750;-1.487280;-2.614764;-2.549714;-3.036292;0.144563;-1.979441;-2.252611;-2.031914;
0.847656;0.935081;2.677563;0.908380;1.209500;2.742070;1.219598;0.642693;2.668306;
0.851563;7.050243;12.398244;7.132370;8.479699;6.086861;6.787465;7.537307;10.518079;
0.855469;11.731742;18.270510;11.121155;12.802314;8.241787;10.696397;13.159711;15.293967;
0.859375;6.624648;11.426721;5.237063;5.507246;3.219163;5.894363;9.274836;9.980790;
0.863281;4.706607;10.795100;4.451838;3.192567;2.127816;2.873055;7.810713;7.312489;
0.867188;9.245878;18.591749;10.185071;9.002611;6.577710;4.858645;12.466079;10.615249;
0.871094;13.659103;23.612801;14.447680;13.405945;11.398751;7.650719;17.786224;14.027460;
0.875000;12.843873;20.789549;13.279661;11.529934;13.790629;7.282176;18.064587;13.014194;
0.878906;3.885034;8.140294;3.641150;1.215271;10.059668;0.416028;9.046963;4.688118;
0.882813;4.276043;7.205077;4.491816;2.479393;13.177889;1.321808;7.533372;4.273410;
0.886719;12.132396;15.256000;12.783371;11.572675;20.258507;8.005816;13.377516;10.313138;
0.890625;10.754312;12.525587;10.227173;8.900780;16.665840;6.790802;11.207006;8.377645;
0.894531;3.204772;3.751810;1.574856;0.393176;5.842925;1.415773;3.749476;1.638390;
0.898438;-2.976667;-3.057966;-5.283984;-5.253763;-4.328845;-1.928641;-1.407530;-2.656958;
0.902344;1.623033;2.808361;0.224314;1.733229;-2.241946;3.740688;3.559179;3.108781;
0.906250;7.460238;9.211029;7.602149;9.497914;5.669631;9.284987;7.886969;8.568387;
0.910156;1.901500;0.858968;1.949055;2.605211;3.930159;3.821398;0.575059;2.424051;
0.914063;-4.328725;-6.889687;-4.440556;-4.604163;-1.945390;-1.986556;-5.895188;-3.892439;
0.917969;-5.480216;-7.101915;-4.980894;-4.833150;-4.391253;-2.184405;-5.839019;-4.421916;
0.921875;1.381540;2.004810;3.208984;3.814447;1.257929;4.760409;1.798934;2.552913;
0.925781;6.925543;8.277020;8.801509;9.830285;5.247016;9.648300;7.057235;7.941612;
0.929688;0.047821;-1.463167;-0.790087;0.794735;-2.454260;3.654321;-0.676354;1.928092;
0.933594;-4.795410;-7.497691;-7.471607;-4.378878;-7.631940;-0.034856;-6.931711;-2.258038;
0.937500;-2.265840;-3.382902;-4.424192;-0.159643;-5.424331;2.445049;-5.050496;0.509554;
0.941406;4.349842;4.818933;3.747675;7.154403;-0.121124;8.116834;2.033336;7.091917;
0.945313;7.197911;7.538103;7.182328;9.239013;1.038197;10.453674;5.595913;9.553961;
0.949219;-2.481014;-4.148833;-3.576664;-2.228698;-7.472766;1.521060;-2.994863;-0.145673;
0.953125;-8.137489;-9.353933;-8.637084;-7.490847;-9.353825;-4.272770;-7.457897;-6.322689;
0.957031;-3.028423;-2.580386;-1.844693;-1.051264;-1.495488;-0.485703;-1.606131;-2.246536;
0.960938;2.585537;3.104565;4.060002;3.898444;2.686015;3.910667;3.789376;2.441133;
0.964844;0.090902;0.277269;1.205462;0.006921;-2.146954;0.270865;0.858372;-0.718161;
0.968750;-9.321137;-10.655646;-8.696309;-10.882129;-10.045273;-10.229979;-8.491031;-10.278152;
0.972656;-4.153109;-6.205693;-3.316023;-5.152081;-3.826698;-6.745724;-4.688785;-6.046171;
0.976563;9.543717;7.449883;10.040723;10.009638;8.473055;5.835598;6.708273;6.978629;
0.980469;9.334659;6.398798;8.344970;9.514602;8.008825;6.894669;6.099212;8.275065;
0.984375;0.967402;-1.741863;-0.830186;1.066614;-0.176240;1.823739;-0.793348;1.950669;
0.988281;-5.087777;-7.536342;-6.905478;-4.929338;-5.980371;-0.803360;-5.098558;-3.354283;
0.992188;-1.111327;-2.124466;-0.860092;-0.205236;-0.662724;3.471053;-0.394439;-0.522038;
0.996094;2.870838;3.746969;5.489072;4.596217;4.381979;5.676190;3.848353;2.399567;
1.000000;-4.329371;-4.191387;-2.447842;-4.047814;-3.893473;-2.160291;-2.514627;-4.130972;
1.003906;-9.152632;-9.550543;-8.498656;-9.565493;-10.531113;-7.164371;-6.660595;-8.253409;
1.007813;-8.127377;-7.764606;-7.242947;-7.421779;-9.596539;-6.198414;-5.658426;-6.912904;
1.011719;-1.635621;0.726794;0.279078;0.504782;-3.899636;0.074881;0.545129;-0.661011;
1.015625;4.191295;7.590591;6.195714;6.113348;1.514881;5.098593;7.161397;4.341493;
1.019531;-2.333111;-1.541363;-1.781202;-3.043125;-0.178811;-1.872845;1.780025;-2.030679;
1.023438;-8.392774;-9.053437;-8.147812;-9.366175;-0.645478;-8.048757;-5.607938;-7.195637;
1.027344;-5.943520;-5.881651;-5.218719;-4.985864;1.399162;-5.520327;-5.998963;-4.336945;
1.031250;0.564195;1.141598;1.470404;2.201083;3.306172;0.845447;-1.239376;1.363574;
1.035156;0.481937;0.528451;1.037427;1.420714;1.253013;1.197523;-1.230475;0.661959;
1.039063;-11.886315;-13.944383;-12.650035;-12.745184;-9.528755;-9.955552;-12.348643;-10.883198;
1.042969;-14.164126;-16.158684;-14.523976;-14.718427;-13.357098;-13.391838;-13.894231;-13.367270;
1.046875;-3.457124;-4.318174;-2.148337;-2.321264;-5.706549;-4.967112;-2.894807;-4.043046;
1.050781;2.406878;1.056072;4.283051;3.247207;2.039023;0.883372;3.170259;1.218448;
1.054688;-0.367835;-2.146224;0.872198;-0.752720;2.368917;-0.845559;0.120448;-1.465026;
1.058594;-7.170159;-9.537853;-7.645356;-8.585451;-4.846552;-7.053464;-6.917819;-7.908368;
1.062500;-3.657515;-4.540529;-3.965199;-3.740343;-3.009227;-3.462887;-3.393965;-4.469618;
1.066406;3.586854;5.133965;5.095687;5.381710;3.946567;4.209581;4.572776;2.851317;
1.070313;-0.222931;0.625363;1.472137;0.220052;-0.663666;0.655717;1.408818;-0.555530;
1.074219;-6.928708;-8.380118;-6.121820;-8.311106;-8.576439;-6.847279;-6.443696;-7.432510;
1.078125;-9.619849;-13.157673;-9.975447;-11.080735;-9.502816;-9.484491;-11.119309;-10.014287;
1.082031;-2.477418;-5.155772;-3.034003;-1.891726;-1.132983;-1.795168;-5.051026;-2.878377;
1.085938;4.493951;3.578113;4.352496;6.660841;4.099372;5.305896;2.853500;3.865633;
1.089844;-1.378508;-4.316108;-2.041633;-1.091670;-1.871694;-0.033366;-1.202057;-1.704276;
1.093750;-6.279398;-11.322587;-7.051291;-7.662506;-4.918768;-4.940650;-6.074617;-6.840966;
1.097656;-5.243780;-9.964382;-5.923723;-6.316561;-3.472687;-4.287385;-6.073438;-6.187897;
1.101563;-1.258322;-4.353662;-1.908273;-1.092463;-1.848354;-0.638006;-2.541609;-2.564128;
1.105469;-0.682278;-3.662991;-1.666256;-0.107251;-3.494634;-0.279540;-1.868855;-2.512274;
1.109375;-7.355277;-12.602233;-9.578654;-8.735004;-8.753691;-6.308365;-8.007098;-8.500294;
1.113281;-5.054493;-9.198382;-6.652798;-6.793115;-3.993078;-3.671349;-5.260351;-5.193586;
1.117188;3.772753;2.963566;3.965494;3.418266;4.535043;4.636810;3.577746;3.209129;
1.121094;7.108073;7.338257;7.463243;6.673346;4.821871;6.668815;6.359279;4.619861;
1.125000;3.465145;3.458591;2.409843;1.709801;-1.377865;1.527994;2.773850;-0.106108;
1.128906;-6.552207;-6.752057;-9.208275;-10.009217;-12.723269;-8.723104;-5.783865;-8.381346;
1.132813;-7.293575;-5.811826;-9.200636;-9.717563;-15.645911;-9.282172;-6.742731;-7.356736;
1.136719;0.860754;2.862052;0.350816;1.097811;-5.456074;-0.361119;-1.345105;0.831240;
1.140625;3.352979;2.645385;2.479030;3.975730;4.574444;3.660652;-0.612671;3.053958;
1.144531;-1.189526;-3.690709;-2.904583;-1.436436;3.991390;-0.146032;-4.496816;-1.131736;
1.148438;-8.497765;-11.262501;-10.847516;-9.539923;-5.002592;-7.120457;-10.766409;-7.342603;
1.152344;-5.212938;-6.554308;-6.422745;-4.847584;-4.933881;-4.054387;-8.013764;-3.926692;
1.156250;1.549182;1.342505;1.979075;4.247213;-0.571082;2.155200;-2.024458;2.060574;
1.160156;-3.496865;-4.995293;-3.259140;-1.158161;-5.698425;-2.880774;-6.645797;-3.176144;
1.164063;-10.201003;-12.412158;-10.126489;-9.275298;-10.272568;-9.904039;-12.775899;-10.270420;
1.167969;-11.034478;-13.643194;-10.924918;-11.553463;-8.444313;-11.253450;-13.472157;-11.916041;
1.171875;-1.077064;-3.486549;-0.575222;-1.710938;1.337412;-1.666750;-3.828558;-2.754990;
1.175781;8.684153;6.756879;10.009733;8.759238;8.737963;7.927613;6.452407;7.248447;
1.179688;0.563317;-2.245482;2.002152;-1.117523;0.409866;-0.706495;0.782988;0.384745;
1.183594;-10.219787;-11.568219;-8.401553;-13.088507;-8.675052;-12.863548;-7.648506;-10.278185;
1.187500;-10.116144;-8.312616;-8.108415;-11.843546;-6.720757;-13.176500;-6.867282;-10.902884;
1.191406;-1.499230;2.684886;0.475253;-1.839458;2.509495;-4.685586;1.314448;-2.733137;
1.195313;3.381750;8.583096;4.764934;3.274793;5.430261;-0.088964;6.048054;3.160260;
1.199219;-1.898312;1.785480;-2.539022;-3.292016;-2.891075;-3.833275;0.779139;0.516234;
1.203125;1.539573;4.554814;0.513606;0.845797;-1.167027;1.188906;2.551661;4.719972;
1.207031;11.529598;14.557308;11.406674;13.000755;9.911391;11.711111;10.402432;13.409263;
1.210938;12.140105;14.359418;11.565043;14.275810;11.236465;13.236551;10.792811;13.619051;
1.214844;4.074310;6.396072;2.061153;5.856182;0.398818;6.822398;4.604872;6.696093;
1.218750;-4.499477;-2.041997;-7.763196;-4.338966;-9.380267;-0.633208;-1.746369;-0.649236;
1.222656;1.710317;5.350991;-0.310998;1.196301;-0.095167;4.196281;4.350133;4.596750;
1.226563;11.931084;16.129673;12.028031;11.959187;12.976117;12.993788;12.964194;13.113269;
1.230469;8.361092;10.240390;8.588813;8.041185;9.035844;10.186431;8.716188;9.635230;
1.234375;-0.261443;-0.526853;-0.824539;-0.625530;-1.036520;1.998553;0.317568;1.831711;
1.238281;-4.499828;-6.183412;-5.622524;-4.781758;-4.049310;-2.829235;-3.710026;-2.803101;
1.242188;3.306430;1.695790;3.345813;4.159963;5.142785;4.329162;3.167557;2.568018;
1.246094;10.322227;9.041660;11.576833;12.497727;10.702281;11.270391;8.971572;7.946281;
1.250000;0.840070;-2.066588;1.202066;1.629350;1.405460;1.940273;-0.730243;-0.399420;
1.253906;-8.589911;-12.010578;-8.882660;-9.112077;-5.083920;-7.790383;-10.466325;-8.649879;
1.257813;-6.813041;-9.389764;-7.006360;-6.936735;-3.425597;-5.596815;-9.307343;-6.748302;
1.261719;3.489126;2.500688;4.001863;4.873678;2.689783;4.977489;0.710352;3.150142;
1.265625;8.613624;8.435565;9.508791;10.486298;6.176853;9.347026;6.396629;8.247585;
1.269531;0.795783;-1.160840;0.252009;0.370166;0.368070;0.988687;-0.362880;1.344824;
1.273438;-0.789563;-2.759609;-2.058943;-1.775932;-1.958973;-1.315598;-2.028364;-0.467821;
1.277344;6.280678;6.288288;5.881604;6.612183;2.816362;4.639176;4.378503;5.114058;
1.281250;10.756850;12.129436;11.531693;10.966959;8.184419;7.853936;9.258642;8.950366;
1.285156;7.635076;8.504375;8.067636;6.734159;7.671849;4.758179;7.272235;6.846039;
1.289063;-0.718974;-3.174730;-2.711270;-3.132782;1.302920;-1.382202;-1.061534;-0.435811;
1.292969;1.561961;-1.826995;-0.774407;-0.052937;3.499548;2.144827;-0.487576;0.737895;
1.296875;6.532723;5.145186;5.902553;7.285246;6.229397;6.617620;3.404008;4.411750;
1.300781;2.271460;1.746017;1.866239;3.783205;-1.033394;1.943508;-0.579512;0.632006;
1.304688;-2.323098;-2.474643;-3.852198;-0.925980;-6.947534;-2.312759;-4.575205;-2.627388;
1.308594;-4.778821;-4.266418;-7.114224;-4.211946;-7.366440;-4.231767;-5.749298;-3.825413;
1.312500;0.608939;3.595596;0.201699;1.084086;1.381533;-1.064796;1.301550;0.703416;
1.316406;8.097549;12.838004;10.404569;8.849173;12.287376;2.837005;10.520570;6.129682;
1.320313;6.536064;9.601313;8.896835;6.226937;11.943228;0.725550;10.016768;4.074917;
1.324219;1.953447;3.644667;3.216994;1.316583;3.775309;-2.531989;4.856122;-0.186035;
1.328125;-2.378450;-0.911814;-1.840533;-2.842482;-4.813868;-6.578876;-0.523655;-4.431720;
1.332031;0.903912;3.125035;1.893663;1.008091;-1.796731;-4.352642;1.675503;-1.655190;
1.335938;6.443439;8.021463;7.376997;6.718704;6.950196;1.904111;6.129055;3.764228;
1.339844;1.414726;-0.668202;0.383642;-0.085406;3.532468;0.389343;0.845703;-0.031309;
1.343750;-3.920968;-6.752299;-5.265092;-5.613498;-4.131621;-2.918732;-3.857523;-4.640664;
1.347656;-5.185241;-5.544471;-4.460905;-5.414599;-5.530653;-5.014452;-4.006529;-6.765418;
1.351563;-2.760510;-0.823298;0.169390;-2.070243;-1.623939;-4.267589;-0.722560;-6.042127;
1.355469;-1.744438;0.326244;0.946993;-1.126994;-3.895936;-3.546315;0.973632;-5.330753;
1.359375;-8.800328;-10.081562;-8.728820;-9.708123;-11.681782;-9.418395;-6.683246;-10.677036;
1.363281;-9.582176;-12.461360;-9.451978;-10.331942;-4.552722;-10.349051;-10.218213;-10.469268;
1.367188;-3.291337;-4.415359;-0.753671;-2.462846;6.871716;-4.837778;-4.965058;-4.040411;
1.371094;0.898325;1.470399;4.306047;2.044282;7.038572;-0.657165;0.898821;0.072324;
1.375000;-0.514266;0.136773;1.586682;-0.237761;1.105200;-1.954028;0.574503;-1.582458;
1.378906;-8.800990;-9.140182;-8.679557;-10.274802;-8.336886;-9.757960;-7.251786;-9.137142;
1.382813;-7.646871;-6.382513;-6.690237;-8.788715;-7.807226;-8.848710;-5.475441;-7.797801;
1.386719;2.940387;5.566300;5.727047;3.113019;3.885819;0.850238;5.199217;1.908722;
1.390625;8.100329;8.502229;10.150404;7.500923;11.115152;5.802130;9.460125;7.150774;
1.394531;4.232451;2.304147;4.723359;2.845366;7.964752;2.399573;4.622284;4.613094;
1.398438;-5.607685;-8.779418;-6.078366;-7.149634;-1.892302;-6.773117;-5.170598;-4.274486;
1.402344;-4.833114;-6.601720;-5.066870;-5.268843;-3.568915;-6.848076;-4.319717;-4.783223;
1.406250;2.180243;2.508020;2.185328;2.672222;0.102052;-1.179342;2.575956;0.789810;
1.410156;-0.054233;-0.520154;-0.605850;-1.026680;-1.351579;-2.656927;0.578745;-0.713087;
1.414063;-2.676671;-3.703652;-2.893568;-4.447755;-0.549350;-3.206419;-1.843942;-2.392186;
1.417969;-0.819814;-1.040506;-0.623302;-1.938721;1.858015;0.309299;0.344032;-0.400572;
1.421875;6.531046;8.141232;7.373660;7.082901;4.546493;7.498878;7.816663;6.878591;
1.425781;10.062840;12.385811;11.497372;11.815392;3.465803;10.659514;11.061587;11.202485;
1.429688;0.579472;0.184408;0.844672;0.988483;-5.116282;3.036919;1.024367;3.148190;
1.433594;-5.168649;-7.121340;-5.670667;-4.986520;-6.717931;-0.944483;-5.656044;-2.888072;
1.437500;-1.841315;-2.638335;-1.497097;-0.415145;0.636311;1.644826;-2.383423;-1.059712;
1.441406;4.588082;5.494134;6.373098;6.244390;8.130163;5.783322;4.923583;4.411333;
1.445313;6.428143;6.875490;7.865101;7.284460;7.845214;6.952990;7.203588;6.392224;
1.449219;-1.319333;-4.283170;-2.850116;-1.849551;-1.158304;0.793513;-1.081781;-0.549016;
1.453125;-2.254760;-5.315333;-4.772614;-1.870501;-2.176541;-0.030777;-3.385711;-1.683930;
1.457031;4.602750;4.822633;3.842877;6.694224;3.497642;5.511524;3.122508;4.902023;
1.460938;7.359731;9.378811;7.866392;8.788589;3.410283;8.044776;7.335669;8.410198;
1.464844;2.333579;4.478770;2.355644;2.031378;-5.135747;3.630599;4.133973;4.262887;
1.468750;-7.369788;-5.841740;-8.928640;-9.152713;-15.692101;-5.555653;-4.477487;-4.868838;
1.472656;-2.178720;0.579184;-2.915108;-2.465721;-4.384885;-0.906511;0.274338;-0.516271;
1.476563;10.781762;14.516513;12.416066;12.696201;19.958336;11.121821;12.358425;11.023598;
1.480469;8.963558;10.893229;10.790102;9.391078;23.595005;8.973670;10.411281;8.789881;
1.484375;-0.537624;-0.158336;-0.240404;-2.012744;9.523120;0.307383;0.409022;-0.666265;
1.488281;-6.384257;-6.814927;-7.964642;-7.753573;-2.533089;-3.507517;-6.486473;-6.128846;
1.492188;-1.237585;-0.318882;-2.784163;-0.673424;-2.478629;1.854740;-2.021435;-0.852459;
1.496094;4.651949;7.515592;4.349678;6.610220;-0.379179;6.640560;4.116438;5.350694;
1.500000;-1.401348;0.231813;-1.732779;-0.711456;-4.464514;1.064502;-1.351222;0.341807;
1.503906;-5.548111;-5.364970;-6.048412;-5.442606;-3.286267;-2.793230;-5.829240;-3.971622;
1.507813;-1.728772;-2.003129;-2.538027;-1.084954;1.879402;-0.295449;-2.964395;-1.540855;
1.511719;6.594757;7.223326;5.715646;7.645061;5.309793;5.795860;4.370334;5.570573;
1.515625;8.754491;10.655293;7.767941;9.522621;1.334731;6.841179;6.185836;7.867636;
1.519531;-0.992631;-0.425970;-3.325439;-1.833062;-9.453862;-1.742668;-2.888870;-0.339928;
1.523438;-3.402301;-3.489798;-5.802577;-3.790405;-8.323402;-2.925296;-4.725636;-1.648556;
1.527344;2.836031;4.023565;1.734792;4.456677;1.896318;4.033545;1.815984;5.401718;
1.531250;6.801320;9.630895;6.925972;9.138359;7.596395;8.400827;6.353622;9.957535;
1.535156;4.035556;7.161747;4.468622;5.442737;3.865125;5.506476;4.653262;6.914438;
1.539063;-5.243955;-4.602424;-6.292500;-6.295767;-7.232815;-3.778636;-4.108539;-2.983009;
1.542969;-3.656206;-3.454541;-4.968811;-4.708332;-5.997732;-2.711207;-4.300414;-2.770714;
1.546875;6.108390;8.003290;6.219795;6.901270;6.089718;6.442535;3.590145;5.760399;
1.550781;8.078060;10.312976;9.083055;8.513914;9.564426;8.001428;6.462985;7.817228;
1.554688;1.548872;3.395378;2.275381;0.663154;1.351373;1.056897;2.234648;2.341583;
1.558594;-7.564849;-6.927257;-8.536755;-9.715762;-8.360933;-7.883965;-6.069100;-5.649171;
1.562500;-4.543087;-3.157239;-5.923256;-6.567575;-4.190911;-5.880449;-4.364180;-3.385958;
1.566406;2.299489;5.695410;2.043790;0.900823;3.213733;-0.563181;2.211467;2.058864;
1.570313;-1.807988;1.134729;-1.662268;-4.087788;0.117205;-4.043518;0.089151;-1.921553;
1.574219;-5.523761;-3.418196;-5.366611;-8.034208;-2.322489;-6.377870;-2.283485;-5.097687;
1.578125;-3.787297;-1.320204;-4.300693;-5.632169;-2.408484;-4.078401;-0.373039;-2.795123;
1.582031;3.044560;7.720119;2.169710;2.700188;-1.345920;2.547718;6.755507;4.356611;
1.585938;5.728471;11.026266;5.032732;6.114856;-0.056098;5.427537;9.863515;7.000190;
1.589844;-2.585025;-1.054081;-3.674208;-4.127054;-1.275746;-1.996354;1.204194;-1.208002;
1.593750;-7.075376;-7.522107;-7.904438;-9.210311;-1.984759;-6.433141;-4.457848;-5.890818;
1.597656;-4.822261;-3.954783;-5.181521;-5.600986;-5.360639;-4.254154;-2.867403;-3.840230;
1.601563;1.330344;3.470853;1.461676;1.987078;-3.497654;2.457138;2.782233;1.744852;
1.605469;3.645538;4.733240;4.125907;4.714848;4.208081;5.476702;4.495747;3.319159;
1.609375;-5.497217;-7.742785;-5.660054;-6.193445;2.531913;-3.866730;-4.039608;-6.058448;
1.613281;-8.417125;-10.947622;-8.081587;-9.157200;-0.936510;-8.805298;-6.021677;-10.081252;
1.617188;-2.332403;-2.948319;-0.763012;-1.107263;1.038039;-3.754169;-0.445735;-5.090303;
1.621094;1.493150;1.108572;3.509485;3.405459;3.788495;0.916130;1.644331;-0.887067;
1.625000;-0.455679;-1.814497;0.993047;0.806403;0.776987;-0.139464;-1.138228;-1.512118;
1.628906;-8.495969;-11.329226;-9.203946;-8.556186;-11.863440;-6.751882;-8.470215;-8.170567;
1.632813;-9.131305;-11.305177;-10.807570;-8.434179;-17.837721;-6.764260;-9.498794;-9.489064;
1.636719;-4.107187;-5.862677;-5.020834;-2.099278;-11.359370;-3.005015;-6.436104;-6.419704;
1.640625;-2.944302;-7.171906;-3.599354;-2.098314;-2.801243;-3.079828;-6.454096;-5.665479;
1.644531;-2.944877;-8.609252;-3.889041;-3.266752;0.103246;-2.954894;-5.930290;-4.418677;
1.648438;-6.485163;-11.711039;-7.915545;-7.151929;-7.679091;-5.559952;-8.521808;-6.419450;
1.652344;-6.590821;-9.611032;-7.124382;-6.181805;-11.667524;-5.743016;-8.827477;-6.581059;
1.656250;-4.627900;-6.458643;-4.177844;-3.296511;-6.829501;-4.002967;-7.069080;-5.459811;
1.660156;-8.691062;-12.826987;-9.136903;-8.910274;-6.213062;-7.488747;-10.706128;-9.235214;
1.664063;-10.808236;-16.017130;-11.638223;-11.485064;-9.963042;-9.566669;-12.938876;-10.450526;
1.667969;-8.998049;-12.761110;-9.163469;-8.394623;-12.167860;-7.852285;-11.066156;-7.733256;
1.671875;0.318911;-0.805241;1.501075;2.223599;-2.936088;0.897918;-1.472741;1.350340;
1.675781;8.898209;9.032895;11.047700;10.909199;8.874537;8.983239;7.236076;9.218534;
1.679688;2.266084;0.414349;3.500371;2.698884;4.551694;3.506372;1.209636;2.999988;
1.683594;-4.498869;-6.910870;-3.889012;-3.820461;-4.520941;-2.743726;-5.378128;-3.933920;
1.687500;-2.238371;-3.148499;-1.441088;-0.427660;-6.800715;-1.774907;-3.918761;-2.648131;
1.691406;4.317897;4.709785;5.014714;5.764728;-1.923849;3.361033;1.298809;3.577690;
1.695313;6.470068;6.172455;6.276921;6.864239;4.310802;5.880518;2.564910;6.393306;
1.699219;-0.482123;-3.658247;-1.859617;-1.475509;2.746663;0.897994;-3.620539;0.546731;
1.703125;-0.500641;-2.711210;-0.954290;-0.500369;1.201083;1.298452;-1.885775;0.568933;
1.707031;5.261403;6.448975;6.204589;6.990233;3.609050;5.908384;5.223514;5.977415;
1.710938;6.900886;8.465205;7.504565;7.560180;6.266882;6.402968;6.779428;7.615696;
1.714844;6.052577;6.077013;5.372790;4.915691;3.996252;5.137607;5.227147;6.874180;
1.718750;2.166680;0.654610;0.578688;0.349459;-3.092289;2.282463;1.493976;3.522264;
1.722656;3.881942;3.663361;4.313253;3.673153;1.948813;3.908062;2.974250;4.447740;
1.726563;6.715979;8.021158;9.606265;7.675528;11.996896;5.151868;5.228175;5.437049;
1.730469;2.212866;1.711817;4.544911;1.485617;10.377300;0.736359;1.614698;0.682934;
1.734375;-2.862664;-5.231692;-1.894778;-4.482150;2.892942;-2.473645;-1.717193;-3.249560;
1.738281;-7.148895;-10.099147;-6.822515;-8.213134;-5.205094;-5.952016;-5.363646;-6.779196;
1.742188;-3.114666;-4.659800;-2.173132;-2.933205;-3.735561;-4.519828;-2.703072;-3.942126;
1.746094;3.614725;3.075627;4.828260;4.255918;4.209342;-0.161866;2.560594;1.048817;
1.750000;0.533166;-1.968828;0.338268;-0.511289;4.084792;-1.225484;-0.334465;-1.827146;
1.753906;-1.220641;-4.040996;-1.751570;-2.708126;1.874025;-0.176661;-1.175313;-2.266762;
1.757813;1.563200;0.983833;2.001215;1.118309;2.245684;2.735797;2.458018;1.324349;
1.761719;6.960760;8.933066;8.378057;7.877681;6.059838;6.667753;7.888796;6.365416;
1.765625;9.428064;11.509711;10.387126;10.934242;8.340153;8.378370;9.689205;8.817758;
1.769531;1.907298;0.691468;0.466133;1.290597;1.831676;1.096618;1.814125;2.441187;
1.773438;-2.087800;-4.234139;-4.481766;-4.072214;-2.797579;-3.404369;-2.741920;-1.746491;
1.777344;0.307009;-0.333921;-1.132594;-0.972976;-2.576061;-1.501151;-1.200854;-0.906861;
1.781250;2.628275;2.276896;2.447896;2.138969;-0.207691;1.009055;1.103059;0.141643;
1.785156;0.434538;-0.983026;0.792820;-0.098111;0.811416;-0.676588;0.595223;-2.296694;
1.789063;-8.468965;-11.194230;-8.824093;-10.281458;-5.751275;-8.597846;-6.086279;-10.157023;
1.792969;-8.647717;-9.358000;-8.121521;-9.684783;-7.392400;-9.048297;-6.232248;-10.053871;
1.796875;-1.711738;-0.104444;0.479714;-0.887529;-1.586262;-3.499447;-1.098513;-4.047690;
1.800781;-0.255905;-0.158799;1.361370;0.042509;1.586425;-2.673204;-0.775539;-3.148404;
1.804688;-3.280645;-5.630800;-3.477813;-4.167631;0.034939;-4.844728;-3.391832;-5.588126;
1.808594;-8.345949;-11.998776;-9.735291;-9.370838;-5.610760;-7.640227;-7.922101;-9.010650;
1.812500;-4.806016;-6.397191;-4.883719;-3.397548;-4.529525;-2.976551;-5.425428;-4.841733;
1.816406;0.506924;1.337622;2.009229;3.497526;-0.090563;1.451052;-0.837447;-0.047852;
1.820313;-4.358761;-4.893833;-3.585434;-4.386726;-1.634493;-4.225844;-4.681846;-5.098238;
1.824219;-7.230310;-8.796398;-7.219652;-9.423393;-2.412021;-6.232826;-6.935307;-7.712816;
1.828125;-3.324467;-3.698934;-3.311619;-3.841132;-2.474605;-0.307418;-3.441529;-2.714433;
1.832031;6.348566;8.436060;7.141233;8.891085;1.524903;8.788862;5.561134;7.553397;
1.835938;11.422359;14.455223;12.277191;14.494336;6.821180;11.495998;10.550446;12.673194;
1.839844;3.825670;5.264633;2.942417;4.044685;3.987476;3.892495;4.003096;6.370331;
1.843750;-0.117639;2.073517;-1.404155;-0.721251;0.354663;0.639717;1.320950;3.349524;
1.847656;3.622255;7.287585;3.212089;4.236820;0.328845;3.508543;5.484202;6.035862;
1.851563;9.738976;12.613324;9.837684;10.747810;7.255629;8.177935;10.291323;10.078631;
1.855469;9.471065;10.490438;8.808349;10.159375;12.408476;8.527346;8.349207;9.529148;
1.859375;-1.269744;-2.132482;-4.221132;-1.515539;1.043270;0.696301;-2.447610;0.850305;
1.863281;-2.133043;-1.858295;-5.668621;-1.660722;-10.188618;0.572433;-2.929753;0.306914;
1.867188;6.336926;8.721532;4.739554;7.669166;-5.844501;6.791713;6.490494;6.697472;
1.871094;9.702674;12.124755;11.210185;10.045710;9.318225;7.974546;12.191367;8.321586;
1.875000;6.653395;7.817043;9.853632;5.999261;17.899540;4.255076;10.981235;5.091572;
1.878906;-0.024240;-0.156283;1.273349;-1.638272;9.948977;-2.014851;4.479666;-0.375696;
1.882813;2.908659;5.168722;2.936398;2.069298;6.389275;0.501483;6.428731;3.159775;
1.886719;9.987926;15.077309;10.703547;10.500748;11.096213;6.598980;12.194121;9.682634;
1.890625;8.602890;12.441325;8.964525;8.318251;9.060271;5.056272;9.458952;7.649738;
1.894531;3.650118;5.575000;2.751343;2.770361;0.998166;1.290047;3.936747;3.129590;
1.898438;-0.177841;1.220966;-1.888898;-0.707673;-5.290862;-0.468348;1.071554;1.498029;
1.902344;7.327369;10.515728;7.039539;8.307755;3.122535;7.327120;9.050977;10.526507;
1.906250;16.893803;20.929552;17.638517;19.065279;15.333508;16.675877;17.216974;20.485025;
1.910156;11.030977;12.344710;9.242085;12.362979;9.497456;13.109743;9.030098;15.925913;
1.914063;0.781947;0.948333;-3.519380;2.250022;-4.907763;5.342438;-2.729543;6.878781;
1.917969;-2.904551;-1.369711;-6.780190;-0.571626;-11.028132;1.729879;-5.667659;2.856044;
1.921875;2.328419;5.649972;1.337106;5.040634;-2.363857;4.865555;0.707609;6.108459;
1.925781;2.928789;5.671148;3.799659;4.855032;4.555459;4.030763;1.203410;4.523192;
1.929688;-11.125710;-12.263520;-11.288647;-12.011430;-6.365800;-9.583898;-12.528142;-10.715615;
1.933594;-18.266336;-20.741682;-18.607141;-20.252228;-15.547952;-17.816450;-18.255100;-19.379961;
1.937500;-11.608439;-12.595008;-10.627038;-12.793685;-10.853412;-14.222552;-10.313908;-14.961560;
1.941406;-2.824131;-2.645520;-0.665167;-3.706306;-1.892811;-7.926560;-1.257652;-8.437873;
1.945313;-2.873979;-2.899866;-0.652681;-4.606423;-2.551645;-8.484690;-1.210232;-9.324056;
1.949219;-12.324552;-14.414315;-11.384085;-16.467915;-13.197708;-16.961710;-10.300743;-17.371664;
1.953125;-10.936385;-13.086428;-9.428355;-15.548862;-9.606137;-15.969591;-9.179214;-14.929893;
1.957031;0.131997;-0.979479;3.162446;-3.193963;8.215233;-6.385328;1.497770;-4.064332;
1.960938;7.180843;5.127273;9.495462;3.868407;18.240896;0.864390;7.725423;2.672292;
1.964844;8.094015;4.764974;8.309393;4.382030;14.132060;4.363395;7.402843;4.050861;
1.968750;2.731928;-1.083500;1.273539;-1.073948;3.834989;2.147368;2.462051;0.597434;
1.972656;4.373067;3.047322;3.390385;2.513919;2.856767;4.655131;5.024664;3.485517;
1.976563;9.880593;11.071758;9.412237;10.322092;4.623380;10.640169;9.912015;9.114227;
1.980469;5.253763;5.098049;3.652628;5.570720;-0.697527;8.320286;4.178492;5.316565;
1.984375;-3.801450;-5.547813;-5.824225;-3.674420;-4.381392;0.784873;-5.036758;-2.556437;
1.988281;-9.843929;-11.488637;-11.601428;-9.442347;-6.686409;-5.720864;-10.708873;-7.936302;
1.992188;-2.989765;-2.178777;-3.794158;-1.264839;-3.341269;-0.150165;-4.563160;-1.396218;
1.996094;5.989300;9.000490;5.711218;8.959998;1.964870;9.000071;3.800309;8.009510;
2.000000;-1.260680;0.160978;-3.002383;0.230824;-4.587788;3.502398;-2.685719;2.626786;
2.003906;-9.712714;-10.192862;-12.167540;-9.180120;-12.334635;-4.911042;-10.965544;-5.517449;
2.007813;-6.431805;-7.165165;-7.748078;-5.218678;-8.691549;-3.703367;-8.187430;-3.732249;
2.011719;5.577003;6.447508;6.344544;7.519589;4.724286;5.547342;3.917464;6.441852;
2.015625;10.003186;12.081566;11.494786;11.343635;10.567306;8.560457;9.090493;9.715941;
2.019531;-1.014658;-0.618556;-1.462212;-2.277020;0.116396;-1.448177;-0.811748;-1.025669;
2.023438;-4.905431;-4.245680;-6.266167;-6.648292;-5.157603;-4.917955;-3.884714;-4.609235;
2.027344;2.568627;5.743528;2.068391;2.585096;0.865208;1.415562;3.833345;2.758675;
2.031250;9.971235;14.328011;10.610101;11.058664;8.806091;7.611528;10.514924;9.674274;
2.035156;9.809258;12.537372;11.168190;10.961899;10.312258;7.723956;9.583793;9.069460;
2.039063;-0.336642;-1.610162;0.445692;-0.115953;1.281932;-0.072927;-0.077699;-0.324651;
2.042969;-2.124117;-3.513828;-1.087394;-1.047672;-1.184603;-0.646313;-1.442803;-1.502325;
2.046875;4.209205;5.869962;5.968959;6.606936;4.478303;4.576707;4.569399;4.652740;
2.050781;4.662242;6.430972;5.631411;5.805345;3.612274;3.859861;3.937880;4.487443;
2.054688;0.056359;-0.533273;-0.412128;0.009462;-4.053375;-0.039195;-2.304266;-0.607598;
2.058594;-6.332151;-9.088984;-7.635245;-6.204881;-9.954707;-3.927318;-9.285950;-6.027956;
2.062500;-4.159142;-5.699656;-4.135563;-2.025136;-4.802097;-0.696949;-6.863619;-2.809374;
2.066406;-0.817005;-0.726072;0.119941;3.075807;-2.764005;2.447841;-3.352013;0.959779;
2.070313;-7.180951;-9.096360;-7.593242;-4.543064;-11.153595;-3.114141;-9.602056;-4.990912;
2.074219;-9.624537;-13.406921;-10.303086;-8.731919;-9.898654;-5.375003;-11.629550;-7.955378;
2.078125;-3.253395;-6.847222;-3.099733;-3.360791;0.563530;-0.498282;-4.516400;-2.832393;
2.082031;6.662279;5.558872;7.757749;6.970500;7.680497;7.019179;5.034682;5.691737;
2.085938;5.217696;6.490859;6.737303;5.922372;3.234499;4.103102;3.178644;4.003944;
2.089844;-9.769707;-8.912766;-9.005125;-11.126458;-7.480894;-10.794084;-9.803966;-9.558155;
2.093750;-13.768284;-12.494938;-13.007935;-15.760025;-6.781673;-14.711759;-11.075206;-12.664046;
2.097656;-6.878166;-4.351973;-5.576055;-7.190881;-1.475475;-7.507536;-3.529690;-5.878818;
2.101563;-0.628401;2.486366;1.255202;0.315096;0.663255;-1.101218;1.259273;-0.323940;
2.105469;1.177135;3.646321;2.984687;1.438284;2.289190;0.050757;2.079316;0.857379;
2.109375;-3.629296;-3.359108;-3.700212;-5.913566;0.202769;-4.996339;-1.687681;-3.276310;
2.113281;-3.376163;-2.190792;-4.371500;-5.653252;-0.679628;-4.535017;-0.365607;-2.281000;
2.117188;0.488481;4.219581;0.181905;0.132440;-0.279044;-0.296426;3.206134;1.493518;
2.121094;1.702550;5.241287;2.225546;1.463949;1.020125;0.624669;3.372304;2.119817;
2.125000;0.643234;2.400426;0.965951;-0.506615;1.100553;-0.677363;1.944457;1.008091;
2.128906;-4.767075;-4.997902;-6.655495;-6.523767;-7.316156;-4.128607;-2.647092;-3.237120;
2.132813;-3.027030;-3.037642;-5.529537;-3.044830;-9.217710;-1.124907;-1.061917;-1.920819;
2.136719;2.850534;3.202862;2.377779;4.193990;0.124135;2.950449;3.499120;1.489443;
2.140625;1.896880;0.547708;2.848413;1.280793;5.009775;0.015122;2.062826;-0.826366;
2.144531;-1.682079;-3.946286;-0.862328;-3.733960;-0.115692;-3.011256;-1.156347;-3.525224;
2.148438;-6.676286;-9.112996;-6.906415;-8.242555;-10.131065;-5.768298;-5.736558;-6.494298;
2.152344;-3.308394;-4.497225;-3.335943;-2.816019;-7.336915;-1.947259;-2.522314;-2.662129;
2.156250;5.285507;5.005230;5.778857;7.066529;4.632189;5.777806;5.673276;4.867149;
2.160156;3.905419;1.713704;3.632909;3.997946;6.251559;4.424849;4.210686;2.940769;
2.164063;-0.951767;-4.628728;-0.854989;-1.847518;3.283185;-0.829975;-0.788211;-2.647400;
2.167969;-2.183301;-6.742380;-1.011513;-2.893518;3.787354;-3.225615;-2.478141;-5.283970;
2.171875;2.413567;-2.012296;4.264970;1.897242;6.826100;0.272394;1.050410;-2.055720;
2.175781;2.022938;-1.574154;3.893757;1.657607;2.498427;0.302566;0.369182;-1.966535;
2.179688;-9.421555;-13.866561;-8.852694;-10.573121;-9.509433;-9.461812;-9.788455;-11.198250;
2.183594;-10.781966;-14.529857;-10.988220;-11.452859;-8.802617;-10.805487;-10.431767;-11.787006;
2.187500;-1.663559;-3.004943;-1.410729;-0.787428;1.386538;-1.848108;-1.272148;-2.642308;
2.191406;5.127606;5.486126;6.920006;7.047750;7.459397;5.797897;5.937083;4.652319;
2.195313;3.645388;3.778725;6.255556;5.032338;5.405125;3.780849;5.291183;2.916532;
2.199219;-6.990512;-8.963746;-6.031101;-8.626794;-4.356098;-8.646148;-4.140744;-8.531748;
2.203125;-8.698189;-9.960025;-8.244259;-10.984215;-5.675297;-11.885204;-5.292460;-11.399804;
2.207031;-0.201119;0.642888;1.554253;-0.074589;3.105221;-3.254687;2.926541;-3.421650;
2.210938;7.208539;8.078447;9.302315;8.313908;10.088307;5.204992;9.621024;4.714220;
2.214844;9.157153;9.418028;9.931659;9.291708;8.115526;7.555726;10.859672;7.862455;
2.218750;1.243915;0.368182;0.180652;-0.126289;-3.895012;0.117240;2.627376;1.216834;
2.222656;-3.014481;-3.363888;-3.125473;-3.391316;-7.733980;-3.854640;-2.559539;-2.988428;
2.226563;-0.207096;0.586560;1.672023;1.303780;-0.872406;-0.408895;-0.547828;-0.552070;
2.230469;-0.090623;-0.124803;1.236603;0.809501;2.049045;1.382356;-0.026676;0.370579;
2.234375;-2.746806;-3.213205;-2.934497;-2.533030;-1.487062;0.127852;-2.471717;-0.966564;
2.238281;-7.164374;-7.375866;-8.318927;-6.732469;-7.775872;-3.668507;-7.322988;-4.187047;
2.242188;-2.149467;-0.844758;-2.435067;-0.486957;-3.754129;0.284697;-2.608178;0.486377;
2.246094;5.678365;7.616792;6.597596;7.885705;5.612352;6.557920;5.567129;6.820805;
2.250000;0.313007;-0.645851;0.364029;0.312887;4.700002;1.275182;0.357224;0.707921;
2.253906;-6.025931;-8.399361;-6.808706;-7.141596;0.642912;-4.673761;-6.726440;-5.771061;
2.257813;-4.961609;-5.130208;-5.661790;-5.004192;-1.207506;-3.891227;-5.799249;-4.128919;
2.261719;3.360089;6.564603;3.357562;4.689870;1.952009;3.118369;2.701395;4.469227;
2.265625;9.101193;12.572206;8.999640;10.246191;4.570853;7.763522;7.531184;9.725320;
2.269531;2.266011;2.066026;0.302833;0.902798;-2.540648;1.796823;-0.278553;3.027404;
2.273438;-1.500710;-2.375577;-3.774067;-3.293870;-5.766955;-1.390982;-3.864307;-0.744945;
2.277344;2.275981;3.658327;1.399137;2.252110;-0.525212;1.698024;1.188848;2.633545;
2.281250;7.227746;9.363484;7.465480;7.912684;6.341474;5.996086;7.221859;7.264021;
2.285156;8.892486;9.858372;8.912462;8.755585;8.842665;7.839705;9.408972;9.054849;
2.289063;2.156444;1.348186;0.129510;0.491273;1.055606;2.404592;3.149340;3.484104;
2.292969;-0.340020;0.625787;-2.584641;-0.270035;-4.616620;0.735872;0.229312;1.734097;
2.296875;2.412196;5.897268;2.221153;5.468905;-2.519804;3.540354;2.089528;4.406539;
2.300781;2.268732;4.407414;2.922761;4.335793;1.214806;2.948575;1.403011;3.553416;
2.304688;0.338203;0.002625;0.143198;-0.212926;2.702626;0.194432;-0.946173;0.422179;
2.308594;-4.323918;-6.253301;-5.572483;-5.817659;-1.423028;-4.013790;-5.578705;-4.144275;
2.312500;-1.774964;-2.305836;-2.126244;-1.247685;-1.032223;-0.921299;-3.193105;-0.928881;
2.316406;4.507007;6.252881;5.099359;6.696593;2.738876;5.157960;2.927710;5.719990;
2.320313;3.402227;4.500732;2.938102;3.978860;1.574401;4.760496;2.610317;5.323641;
2.324219;1.719039;1.824196;0.493320;1.354221;0.010364;4.226255;1.664096;3.909078;
2.328125;-0.333073;-0.501264;-1.630422;-0.146913;-3.729045;2.274215;-0.399568;1.456748;
2.332031;1.155422;1.855939;0.892576;2.274951;-3.261805;2.088522;0.587600;1.693160;
2.335938;4.099259;4.851970;4.843544;5.587902;1.037357;4.179586;3.216724;3.586177;
2.339844;-1.030306;-3.189945;-1.632671;-1.010503;-3.300180;0.677275;-2.115953;-0.877660;
2.343750;-4.238890;-7.558286;-6.022327;-4.394106;-6.740712;-1.572183;-5.991436;-3.149996;
2.347656;-2.013064;-4.136241;-3.261391;-0.752370;-1.805582;0.359232;-3.894461;-0.870284;
2.351563;2.221053;1.783762;2.566679;4.463585;5.862706;3.973052;0.698652;2.306165;
2.355469;0.781682;1.235984;1.822442;2.553996;4.917437;1.964970;-0.370081;-0.052764;
2.359375;-8.364884;-9.516989;-8.815062;-8.833927;-5.007578;-7.087126;-8.752330;-8.691902;
2.363281;-4.933454;-6.107089;-5.809580;-5.472056;-3.441956;-4.455638;-4.942996;-5.165261;
2.367188;5.220950;6.292534;5.276182;6.394037;2.830184;4.664916;5.769952;4.833892;
2.371094;4.649149;7.332392;5.404048;5.814306;-1.716049;4.169991;6.902369;4.737452;
2.375000;-1.523039;0.749203;-0.508277;-1.907184;-6.061864;-2.039218;2.041087;-1.433425;
2.378906;-5.614036;-5.784768;-5.541320;-8.190804;-1.218821;-6.729793;-2.832148;-5.837376;
2.382813;0.159099;1.149617;0.020684;-2.204544;9.825828;-2.177049;1.040072;-0.452186;
2.386719;5.672679;10.691965;5.884853;4.755514;12.085217;2.494054;6.472469;5.201050;
2.390625;2.788040;8.734518;2.468061;1.128960;5.493524;-0.490115;4.837894;2.918667;
2.394531;0.863490;5.425460;0.112292;-1.701339;2.680089;-2.211243;3.039684;1.563423;
2.398438;-0.197532;3.342943;-1.540447;-2.430642;-0.834477;-1.624182;1.548874;1.941929;
2.402344;3.793141;9.133461;2.860051;4.029824;-0.810752;4.470016;5.009157;6.849448;
2.406250;7.317718;13.910809;7.121978;9.591260;3.732329;9.274839;7.983443;9.952458;
2.410156;1.464785;5.049971;0.188672;1.553921;3.355142;3.234429;2.103733;3.467189;
2.414063;-1.908814;-1.034378;-4.075033;-4.340981;1.383270;-2.520592;-1.533548;-0.946822;
2.417969;-0.932335;-0.443084;-2.928041;-3.167801;-2.624529;-3.441073;-1.533582;-0.954138;
2.421875;2.444465;4.405976;1.407690;2.322135;-5.489666;-0.184305;0.726357;1.657752;
2.425781;2.834561;5.310962;2.717628;3.730237;-4.777915;0.980490;1.440588;1.939074;
2.429688;-5.131279;-5.659759;-5.449632;-6.324288;-5.283407;-5.615908;-5.081109;-5.250041;
2.433594;-7.756339;-10.056864;-8.080753;-9.518982;-3.680723;-7.361588;-7.873556;-8.117140;
2.437500;-3.730528;-5.541373;-3.866820;-3.361130;-1.807955;-2.386473;-4.850247;-4.709082;
2.441406;2.014760;1.336763;2.553526;4.099806;1.129325;4.137784;1.053165;1.517679;
2.445313;4.959904;5.252948;5.818819;6.550895;2.679387;6.401119;4.367308;5.581795;
2.449219;0.142890;-0.531689;-0.704613;-1.048935;-2.046920;-0.063987;-0.958306;1.381469;
2.453125;2.199713;1.911393;0.935439;0.429205;1.009900;0.074099;0.214664;2.135156;
2.457031;8.746203;10.000641;8.738680;8.679806;7.671330;6.830389;6.953151;7.387970;
2.460938;5.473414;6.118286;5.888384;5.702340;3.898324;5.724682;4.593017;4.339401;
2.464844;-5.273872;-6.974750;-4.792117;-5.910663;-4.928964;-4.147791;-5.741739;-6.294744;
2.468750;-14.517452;-19.068264;-13.955441;-16.006660;-11.447852;-13.313093;-15.159124;-15.758857;
2.472656;-6.619730;-10.784775;-5.195543;-6.518078;-6.078226;-5.469791;-8.651184;-8.531408;
2.476563;7.567860;5.060992;9.336615;9.371140;4.418079;7.780610;4.035113;5.102935;
2.480469;5.651095;1.908191;6.070057;5.606358;4.784112;4.311628;2.459895;3.330705;
2.484375;-6.248187;-11.289355;-6.936853;-8.262211;-3.523130;-8.445780;-7.951885;-8.736888;
2.488281;-14.230591;-19.149445;-15.060706;-16.556623;-12.456174;-15.959145;-14.840782;-17.174425;
2.492188;-5.479785;-8.166901;-4.600946;-6.632197;-6.905709;-7.848619;-6.183592;-9.509891;
2.496094;7.001666;5.823737;9.314945;6.868449;5.099674;3.683639;6.243780;2.345646;
2.500000;2.379379;-1.278899;3.112545;1.216817;1.658971;0.734377;2.381740;-0.839702;
2.503906;-5.493076;-10.707680;-6.218910;-6.747392;-7.782562;-5.146242;-5.515434;-7.187204;
2.507813;-4.918957;-8.574039;-5.451480;-5.234354;-10.745559;-4.659025;-5.723065;-6.237754;
2.511719;2.722684;2.280186;3.201746;2.995168;-4.646002;1.211164;1.855336;1.190153;
2.515625;6.010281;6.769008;6.884156;5.832989;3.976989;3.198054;6.371999;4.648123;
2.519531;-1.843749;-4.191591;-2.143846;-4.164216;6.068084;-4.136401;-0.364101;-2.845502;
2.523438;-2.268319;-5.409333;-2.432022;-4.335709;9.097625;-4.396245;-1.226976;-4.397485;
2.527344;4.332479;3.841367;5.595078;4.662052;11.128196;1.466924;4.815732;1.065613;
2.531250;5.844200;6.938224;7.805162;7.030533;7.687721;2.547624;6.282962;2.974765;
2.535156;0.768496;1.637325;2.133639;1.116774;0.833005;-1.568671;1.604035;-0.412589;
2.539063;-8.268901;-8.434410;-8.754299;-9.750939;-7.669730;-8.383350;-6.289251;-7.016785;
2.542969;-5.660044;-4.668209;-6.481179;-6.667026;-4.855228;-5.385287;-3.855611;-3.945558;
2.546875;3.918544;6.099299;4.088938;4.960649;4.923188;3.372057;4.020961;4.454916;
2.550781;6.701436;7.639713;7.202673;7.801898;9.193619;6.709772;5.970817;7.014249;
2.554688;4.700537;4.359527;4.932054;4.538675;8.111127;5.127539;4.875203;5.296071;
2.558594;-0.452201;-1.367389;-1.108304;-2.306343;1.925617;-1.287958;1.315958;-0.123032;
2.562500;2.741130;3.765611;2.577563;1.414583;2.185940;-0.298284;4.610325;1.932619;
2.566406;10.055388;12.321961;10.725767;10.624861;7.235878;6.821093;10.709948;9.191595;
2.570313;6.360593;5.776448;5.803043;6.625967;3.947677;5.280828;6.494393;7.480873;
2.574219;-1.235943;-3.080639;-2.698149;-1.250585;-2.131896;-1.165464;-0.416268;1.195844;
2.578125;-3.966317;-3.778169;-4.667159;-3.521074;-4.002848;-4.423773;-2.231649;-2.136706;
2.582031;3.257065;6.157761;4.307632;4.260356;1.600822;1.502370;4.280729;3.169236;
2.585938;7.154360;10.095753;8.176585;8.238426;3.896664;5.616233;6.597112;6.295626;
2.589844;-4.087137;-4.720852;-5.410501;-4.297158;-3.724152;-2.756720;-4.752716;-3.200023;
2.593750;-10.905025;-13.159673;-12.100862;-11.022607;-4.724168;-7.581542;-10.682129;-8.866668;
2.597656;-6.304263;-7.381275;-5.299257;-5.257182;0.337864;-3.236726;-5.903246;-4.997059;
2.601563;2.135268;2.967185;4.218656;3.736078;3.745881;3.965796;1.614541;2.304988;
2.605469;3.898773;5.841934;5.495749;4.967249;2.256973;4.796143;3.822083;4.139568;
2.609375;-5.369856;-4.795582;-5.338568;-6.458650;-6.105526;-4.600033;-2.817896;-3.956702;
2.613281;-6.341793;-6.023199;-6.672998;-7.570484;-6.101626;-6.583257;-3.010467;-5.327349;
2.617188;1.420747;2.827040;1.473564;1.858114;1.280293;-0.016195;2.841583;1.270244;
2.621094;4.844313;6.529531;4.863734;5.906433;3.344141;3.590100;4.995076;5.242456;
2.625000;2.793207;3.675908;2.699729;3.976583;1.929824;3.004960;3.481253;4.889273;
2.628906;-2.485174;-4.368718;-3.342793;-1.860312;0.743839;0.004057;-1.531589;0.620750;
2.632813;0.830754;-1.838437;0.035709;2.336179;4.697000;4.319254;-0.305234;2.799392;
2.636719;6.314460;4.976559;5.886763;9.474597;5.889795;9.738757;3.224756;7.247774;
2.640625;2.651206;0.973679;1.668509;5.043885;-0.334466;6.143354;0.542957;4.372223;
2.644531;-1.150413;-3.807410;-2.436480;-0.165352;-3.545949;2.075291;-1.333995;1.028051;
2.648438;-1.454717;-4.545772;-3.223907;-0.784114;-3.204447;2.297177;-1.647035;0.575435;
2.652344;4.744489;3.734892;3.322504;7.284026;1.787632;9.380936;2.132399;6.685440;
2.656250;7.857105;9.011045;6.994689;11.741829;3.648291;12.348692;3.487691;10.279652;
2.660156;-0.328031;-0.608869;-2.185427;1.453255;-3.966632;3.619265;-3.720245;3.064544;
2.664063;-3.361898;-4.906251;-5.436168;-2.670575;-6.546211;0.774828;-5.539607;0.184480;
2.667969;0.711442;0.083232;-0.428414;2.643267;-3.651335;5.951971;-1.451089;4.453411;
2.671875;6.145286;8.317247;5.947257;9.401442;0.318693;10.815765;3.714932;10.111987;
2.675781;7.015433;10.381242;6.364521;9.765587;2.566350;9.808684;4.914747;10.376071;
2.679688;-0.086522;0.119042;-2.614661;0.071234;-1.345455;2.902794;-1.277978;2.638416;
2.683594;-0.479378;-1.753138;-2.502936;-0.585441;-0.622809;3.364879;-0.948525;1.493859;
2.687500;4.659847;4.693716;5.098629;5.679186;5.358342;7.383437;4.789074;5.637515;
2.691406;6.364992;7.226645;8.612707;6.794970;8.659440;6.025045;6.876441;5.776198;
2.695313;0.810259;1.163954;3.427377;0.141550;3.453958;-1.349448;2.001513;-0.729725;
2.699219;-12.108307;-13.433912;-10.583608;-13.510812;-9.894241;-12.336651;-9.522354;-12.153119;
2.703125;-13.539674;-13.945053;-11.762900;-13.669458;-11.619883;-12.184000;-10.548525;-12.491378;
2.707031;-3.086942;-2.056249;-0.109876;-2.372264;0.113971;-3.426231;-1.019857;-3.441384;
2.710938;3.699614;3.680145;6.391926;2.759102;7.365809;1.268700;4.855372;1.565567;
2.714844;1.570201;0.922590;2.693797;-0.356581;2.267461;-0.596348;2.887831;-0.512676;
2.718750;-6.820980;-7.660344;-7.429717;-8.923226;-6.963166;-7.750072;-4.908661;-7.782554;
2.722656;-5.400326;-5.306439;-5.251974;-6.631415;-2.555332;-7.587036;-4.342785;-7.258491;
2.726563;0.097966;0.984141;2.175425;-0.234095;4.647365;-4.352147;0.205179;-3.615178;
2.730469;-4.571090;-5.200604;-2.538040;-5.893540;-2.040135;-9.242291;-3.986222;-8.434412;
2.734375;-9.631970;-11.726579;-8.919457;-11.481982;-11.510557;-12.949090;-8.711960;-12.635001;
2.738281;-8.678793;-11.693108;-9.489696;-10.383534;-13.163668;-10.404393;-8.753987;-10.720751;
2.742188;0.442398;-1.226810;-0.080069;-0.262406;-3.028720;-1.229772;-1.522930;-1.348413;
2.746094;5.691856;6.654283;5.983809;6.274631;3.649076;4.115321;3.596594;4.699269;
2.750000;-1.999108;-1.183389;-3.353004;-1.897686;-6.407791;-1.010260;-2.100628;-0.521737;
2.753906;-4.776277;-5.344769;-7.584528;-4.722153;-11.409827;-1.322925;-4.800761;-2.095945;
2.757813;0.607244;-1.176864;-1.382831;1.101495;0.169803;3.941347;-1.567695;2.171427;
2.761719;6.478751;5.601974;6.815856;7.239424;13.408091;7.330703;3.714385;6.516789;
2.765625;5.443986;6.670626;6.576572;6.105986;11.022678;4.316948;4.914466;5.455316;
2.769531;-3.473986;-3.189555;-4.895667;-4.730576;-1.706775;-4.359099;-1.830102;-2.279510;
2.773438;-3.413497;-3.980494;-6.197265;-5.063386;-2.149920;-4.332160;-2.351687;-2.552215;
2.777344;2.507207;2.952110;1.440689;2.695687;3.839904;1.445577;2.125219;2.278958;
2.781250;4.910004;6.355731;5.712071;6.256221;4.346003;4.945696;4.375210;4.984054;
2.785156;4.040069;5.023379;4.391169;4.945821;2.541985;5.529819;4.234977;5.081287;
2.789063;-2.335442;-3.596823;-3.755056;-3.516263;-0.087571;-0.177813;-0.917664;-1.220105;
2.792969;-2.785475;-2.675348;-2.735591;-4.227067;3.371176;-2.492619;-0.177422;-3.354348;
2.796875;2.468524;6.481851;5.445607;2.381076;7.654621;0.318212;5.990923;0.479185;
2.800781;3.438066;7.816169;6.515882;3.155180;4.961919;1.233805;7.192552;1.384191;
2.804688;-1.335204;0.750428;0.227774;-2.278178;-1.710352;-2.387641;1.762460;-3.435723;
2.808594;-10.963618;-10.835982;-10.999390;-12.441547;-9.954346;-11.472633;-8.733307;-12.949178;
2.812500;-9.140578;-7.325549;-9.180539;-9.796436;-7.029629;-10.910434;-8.071495;-11.219916;
2.816406;0.492756;4.713881;1.483310;0.842088;1.401993;-2.710735;1.088706;-1.410877;
2.820313;-0.678236;2.078850;0.192857;-1.468184;-1.592000;-3.518965;0.567103;-1.531770;
2.824219;-4.855927;-4.174793;-4.859005;-6.485713;-7.127079;-6.898496;-3.543005;-5.406263;
2.828125;-3.261020;-3.351086;-4.393391;-5.047181;-6.665214;-4.742861;-2.688064;-4.178459;
2.832031;6.157523;7.432285;5.509941;5.258996;-0.149142;4.967775;5.541061;4.788947;
2.835938;10.728801;13.039962;11.578100;11.407513;3.688350;10.564061;9.463243;9.724232;
2.839844;0.588951;-0.162131;1.033391;1.039021;-0.637311;2.635213;-0.054238;1.335529;
2.843750;-4.568754;-7.751832;-5.068595;-3.997273;-0.683407;-1.221951;-5.290423;-2.889934;
2.847656;0.321428;-2.279269;-0.169599;1.847517;4.205061;4.022928;-1.681966;1.530516;
2.851563;5.431839;4.639010;6.266155;7.617896;7.919400;8.556983;2.580456;5.588628;
2.855469;2.972864;2.706928;4.485393;4.928997;4.125790;4.606871;0.887769;2.502384;
2.859375;-6.530005;-8.903648;-6.894525;-6.929048;-8.815553;-5.953012;-6.794511;-6.599705;
2.863281;-4.863199;-6.800309;-5.819287;-6.108914;-12.863500;-5.601513;-4.579933;-5.288351;
2.867188;3.811430;4.333605;4.643234;4.194547;-3.663120;2.404617;3.194531;2.819515;
2.871094;6.254637;7.108969;8.724690;8.052380;8.015846;6.028940;5.111959;5.945589;
2.875000;3.153561;2.974247;5.653420;5.222552;10.929824;4.483026;3.025205;3.876197;
2.878906;-2.922341;-4.702588;-2.184212;-2.461907;2.403404;-0.751491;-1.643198;-1.841469;
2.882813;-0.080796;-1.225684;0.362166;0.089819;0.996629;1.423939;0.650494;-0.081824;
2.886719;4.480563;5.040379;6.154055;5.717928;5.350454;4.796867;4.280776;3.710551;
2.890625;0.147637;0.239823;1.927533;0.405122;2.748534;-0.126630;0.502305;-0.055750;
2.894531;-2.930263;-4.062464;-2.064183;-3.936526;-0.967453;-3.232389;-2.104067;-3.029167;
2.898438;-3.066487;-5.135823;-3.357766;-4.274008;-2.279065;-2.569860;-2.645372;-3.696471;
2.902344;2.306785;1.778065;2.609691;2.248784;2.800967;2.619448;1.586461;0.532004;
2.906250;6.050620;7.025568;7.101682;6.627223;5.094656;5.291430;4.082773;3.392971;
2.910156;-1.301731;-2.203881;-1.907343;-2.463132;-5.014832;-2.527638;-3.683651;-3.402739;
2.914063;-6.129032;-8.021118;-7.863277;-8.170053;-10.585732;-8.170908;-7.927356;-7.558555;
2.917969;-3.095709;-4.380479;-4.148895;-4.520289;-4.607786;-5.292720;-4.048975;-4.475373;
2.921875;4.534218;5.021531;4.914868;4.670791;4.420063;3.224627;3.306875;2.805985;
2.925781;6.264641;8.564882;6.955526;7.217946;5.035467;5.122127;5.178025;4.822441;
2.929688;-3.265448;-2.314086;-4.023320;-4.943119;-2.746527;-5.280798;-2.137375;-3.895271;
2.933594;-6.725947;-6.578918;-7.747196;-10.047186;-3.586451;-9.578152;-4.061322;-7.771699;
2.937500;-4.316082;-2.405918;-4.851825;-6.004005;-1.922030;-6.425235;-2.427474;-5.415541;
2.941406;-2.868072;1.390511;-3.200868;-2.579286;-2.657526;-4.033677;-2.424356;-2.499901;
2.945313;-1.755966;3.114328;-1.872235;-1.264889;-1.722799;-2.508962;-1.626338;0.246630;
2.949219;-3.552337;-1.137540;-4.535968;-4.907895;-3.006965;-2.951279;-2.971029;-0.501607;
2.953125;0.607873;2.408194;-0.777042;-0.578273;-2.155740;1.471349;0.519346;3.180208;
2.957031;6.972662;9.994128;5.886482;7.506650;0.224308;6.408447;5.843498;8.581469;
2.960938;7.020865;9.367406;5.897633;7.280188;2.521745;5.695143;5.698503;8.313233;
2.964844;2.690013;4.171079;1.468534;1.916978;4.259851;1.929543;1.871661;4.204269;
2.968750;-4.871912;-2.901767;-6.491206;-6.409186;-1.198129;-4.716969;-4.437785;-2.226296;
2.972656;-2.346378;2.485960;-2.854893;-2.606670;-2.092592;-2.502054;-1.369782;0.587098;
2.976563;5.987525;12.248964;7.073481;7.608545;3.588972;5.711221;6.412912;8.105521;
2.980469;5.511445;8.761333;6.023814;6.283325;3.679508;6.174082;5.684813;7.072989;
2.984375;2.270228;2.909639;1.524239;1.901355;0.466390;2.913045;2.841461;3.054609;
2.988281;-0.472905;-0.201507;-1.585596;-0.789456;-2.360901;-0.502962;1.078152;-0.332837;
2.992188;2.693817;4.651061;3.298998;3.412901;3.347095;1.452257;4.966069;2.151161;
2.996094;7.042597;10.304100;9.146916;7.668844;12.136919;4.165165;9.786177;6.113505;
3.000000;2.752919;4.460369;3.448182;0.606395;10.635990;-0.848552;6.323130;2.748921;
3.003906;0.734669;1.989434;0.168393;-2.237353;7.547834;-2.703912;4.362916;1.813205;
3.007813;3.050871;5.497104;2.471917;2.112037;6.638950;0.842797;5.363668;4.840494;
3.011719;6.437682;10.088237;6.147054;7.750495;6.180178;5.763571;6.665459;8.207045;
3.015625;3.698972;6.707675;3.149400;5.634820;0.797662;4.469463;2.681416;5.082291;
3.019531;-8.942350;-9.572013;-10.616784;-8.725135;-12.185566;-6.779838;-9.693554;-7.523337;
3.023438;-11.166724;-13.219898;-12.165666;-10.963274;-13.514785;-9.547990;-11.739873;-10.645708;
3.027344;-2.563583;-3.784002;-1.769387;-0.709751;-2.604050;-2.468335;-3.571755;-3.473962;
3.031250;2.763726;1.549020;4.467362;4.792608;3.646688;2.176598;1.050595;0.790767;
3.035156;0.676046;-1.058090;2.190495;1.281515;0.420520;0.010990;-0.645834;-1.928971;
3.039063;-6.660614;-9.364064;-6.451995;-8.344491;-4.766682;-7.157303;-5.610476;-9.210057;
3.042969;-4.333500;-5.720963;-3.809116;-5.647012;1.610235;-5.683804;-1.778057;-7.678863;
3.046875;0.890662;1.309916;3.054902;1.216118;7.830651;-1.785674;3.029063;-3.419481;
3.050781;-2.979363;-3.402400;-0.301881;-3.360841;2.592884;-5.731734;-1.077474;-6.450073;
3.054688;-7.105196;-9.006498;-5.172719;-8.170432;-2.359350;-8.086765;-4.659351;-8.517500;
3.058594;-7.735808;-10.967403;-7.672290;-8.564630;-3.139777;-6.292276;-5.364838;-7.543050;
3.062500;-0.314076;-2.757211;-0.740582;0.311869;1.702138;0.944820;0.063844;-0.910985;
3.066406;5.891039;4.481935;6.162142;7.439682;4.358892;5.590061;4.453531;3.795951;
3.070313;0.371934;-2.913042;0.018537;0.047558;-2.211211;0.331554;-0.744859;-1.362520;
3.074219;-4.804015;-9.450686;-5.795812;-6.192493;-7.410889;-4.090873;-5.159559;-5.706339;
3.078125;-5.681551;-10.175531;-6.265934;-6.360643;-8.186450;-5.470015;-6.032188;-6.758861;
3.082031;-1.296059;-4.263927;-0.390180;-0.758401;-4.215788;-2.839889;-2.146432;-3.667643;
3.085938;1.637231;-0.393175;2.970080;2.547959;-1.247807;-0.174346;0.572658;-1.028149;
3.089844;-4.231405;-8.346786;-4.673167;-4.843182;-4.421653;-3.513791;-5.348799;-5.112219;
3.093750;-5.232412;-10.095704;-6.091312;-5.764812;-4.005031;-2.792351;-7.099091;-4.943419;
3.097656;-0.783364;-4.267333;-0.602609;0.291066;-1.432468;1.441047;-3.189251;-0.298807;
3.101563;3.329497;0.935835;3.874985;5.382059;-0.240980;4.904283;0.504318;3.952291;
3.105469;2.912920;0.007034;2.207249;4.785295;-3.219015;4.724866;-0.467710;3.877445;
3.109375;-5.590618;-11.025943;-8.393917;-5.815608;-9.944787;-2.425683;-8.522051;-3.836701;
3.113281;-6.149762;-11.858836;-8.474792;-6.818068;-5.032914;-2.820253;-8.691074;-4.769187;
3.117188;2.877747;-1.336968;1.964672;3.741073;5.633557;5.251632;-0.216589;3.021809;
3.121094;9.314281;5.600686;7.945690;10.293602;8.158535;10.871427;5.898662;8.678067;
3.125000;7.008526;3.431595;4.531943;6.552818;2.756034;8.002982;4.188834;6.035307;
3.128906;-2.444361;-6.627284;-5.761386;-5.048866;-5.769787;-2.021223;-4.542415;-3.433546;
3.132813;-0.371219;-3.176962;-2.666483;-2.766914;-2.865491;-2.120491;-2.668913;-2.160380;
3.136719;8.074268;7.854823;7.141427;7.679737;4.946375;5.227718;5.637135;6.196767;
3.140625;5.629719;5.945886;4.407561;5.900855;3.190018;5.386529;3.830762;5.813535;
3.144531;-1.037966;-0.765652;-2.235446;-0.473587;-1.144983;0.909024;-1.655435;0.850317;
3.148438;-5.105024;-5.432748;-5.819574;-4.333568;-3.900789;-4.000849;-4.187603;-3.223431;
3.152344;0.350796;0.183396;0.469244;2.549711;-1.684807;-0.606161;1.213544;0.874077;
3.156250;6.337065;6.333911;6.567770;9.712583;-1.653868;5.490134;5.760309;6.326911;
3.160156;-0.257751;-2.108491;-1.287483;0.774003;-10.348129;1.104859;-1.250359;1.157035;
3.164063;-7.385554;-9.651762;-8.015716;-8.643561;-11.553499;-6.176117;-7.865149;-5.555881;
3.167969;-7.715671;-8.816274;-6.804984;-9.016380;-2.350413;-8.781480;-7.836293;-7.177057;
3.171875;1.386747;2.355946;3.095072;1.655513;8.558485;-0.796950;0.745275;0.694631;
3.175781;8.716160;11.283291;10.016082;9.874423;10.557772;7.185993;7.560948;8.223496;
3.179688;0.915064;2.227309;0.848150;0.050534;1.048352;1.004218;0.420391;2.122795;
3.183594;-1.906809;-0.773994;-1.771255;-3.214258;0.389849;-0.540390;-1.564565;0.271016;
3.187500;7.175871;10.004538;7.923613;8.266689;9.315893;9.676065;8.070666;9.542171;
3.191406;13.802879;18.702059;13.824058;16.964663;12.696104;17.484390;15.009164;16.883970;
3.195313;8.019465;14.425817;6.980697;11.160525;6.355561;12.777101;9.437580;12.214832;
3.199219;-6.172671;-0.843739;-8.068481;-5.659814;-3.686895;-1.144235;-4.486747;-1.469091;
3.203125;-5.998683;-0.631000;-6.857359;-6.679293;-2.363487;-3.901297;-4.619614;-2.908382;
3.207031;3.982582;10.799529;4.790465;4.094177;2.803038;2.590637;5.282745;5.193219;
3.210938;6.473389;13.250213;7.418267;6.798788;-0.026073;5.516807;8.551395;7.955106;
3.214844;3.409938;8.947391;3.641651;3.824188;-2.978021;5.037880;6.422542;6.273510;
3.218750;-1.524274;1.348056;-2.006633;-1.592229;-0.036001;0.805187;1.609644;1.735796;
3.222656;1.540951;3.850794;2.130051;2.190733;9.874658;1.935808;3.007822;2.988107;
3.226563;6.247662;9.800291;7.711870;8.368835;11.417974;6.130201;6.024323;6.330102;
3.230469;2.507622;5.222527;2.671281;3.815975;1.096421;3.935340;2.220703;3.370076;
3.234375;0.812194;2.363006;0.063639;0.675822;-1.688152;1.379177;0.925191;1.931446;
3.238281;2.564792;3.440342;1.596656;1.554782;1.941895;0.658733;2.644905;2.796157;
3.242188;7.140633;8.107450;6.957076;6.971193;6.542734;4.800521;6.536605;6.346534;
3.246094;7.561592;7.508553;8.306856;8.729236;7.024014;7.826834;6.670452;6.797210;
3.250000;-1.868651;-5.223057;-1.794964;-1.848598;-0.965679;1.332779;-2.172317;-1.488757;
3.253906;-6.043402;-10.326789;-5.818118;-6.626150;-3.486048;-3.425128;-6.319131;-5.722580;
3.257813;-2.990101;-6.162531;-1.440590;-2.530511;1.712799;-2.809843;-3.846748;-3.825138;
3.261719;2.425135;0.645726;4.963170;3.951846;5.626625;1.670711;0.902483;1.014272;
3.265625;4.270501;3.221880;6.062533;5.717480;0.880551;5.184543;2.490261;3.935798;
3.269531;-2.572734;-5.495315;-3.123408;-3.306838;-8.295723;0.873994;-3.821430;-1.107447;
3.273438;-4.495846;-7.910206;-4.806328;-5.857678;-4.280215;-1.895283;-4.958173;-3.678475;
3.277344;-1.855929;-3.189360;0.014728;-1.913406;3.778586;-2.420738;-1.014082;-3.015059;
3.281250;-0.529866;0.085618;1.857030;-0.002559;2.707328;-2.598127;1.232390;-2.141832;
3.285156;0.834538;1.427104;1.849231;1.103799;-1.228880;-0.513110;1.965591;-0.048148;
3.289063;-1.788063;-3.706127;-2.614691;-2.578041;-4.331316;-1.686517;-1.518274;-1.830471;
3.292969;-0.533428;-2.466123;-0.692955;-0.483594;-0.648487;-0.487579;-0.716031;-0.783747;
3.296875;2.399240;2.474057;3.950163;4.232700;3.415673;1.968612;2.162596;1.764557;
3.300781;-0.789282;-0.784038;0.588077;0.669725;0.128428;-0.423283;-0.498157;-1.053206;
3.304688;-5.641144;-6.717272;-5.118991;-5.082064;-4.801233;-4.547990;-4.707532;-5.805510;
3.308594;-10.670080;-13.144500;-10.909014;-11.096575;-9.681806;-9.936586;-9.598297;-11.241021;
3.312500;-6.713629;-8.007816;-6.164952;-7.041564;-6.900316;-7.680293;-6.412689;-8.483568;
3.316406;0.273460;1.383434;2.402435;0.760668;-0.257429;-1.276525;0.561543;-1.955945;
3.320313;-3.286708;-3.034431;-1.214055;-3.665790;-1.323081;-3.040571;-1.556896;-4.062443;
3.324219;-7.842698;-8.883782;-6.481112;-9.249039;-4.480244;-6.716900;-5.407192;-7.706378;
3.328125;-8.006804;-9.079976;-7.192381;-10.220155;-6.039804;-7.803945;-6.080276;-8.287162;
3.332031;-1.186893;-1.274383;0.190866;-2.915844;-1.471403;-2.174852;-0.267266;-2.454659;
3.335938;5.254030;4.979458;6.979689;4.671381;5.072005;4.108820;5.636276;3.174374;
3.339844;0.462124;-2.462876;0.521545;-1.654986;2.479933;-0.287823;1.451646;-1.902867;
3.343750;-2.725505;-5.607412;-3.255481;-5.699930;-1.300962;-4.163373;-0.944852;-5.395758;
3.347656;-0.149822;-0.898910;0.341784;-1.507354;0.040677;-2.292145;2.138099;-2.404241;
3.351563;3.893774;4.199849;5.063138;3.829763;4.368359;1.097401;5.640346;1.981673;
3.355469;3.769156;3.880550;3.960659;2.994061;2.471340;0.736814;3.982563;1.702987;
3.359375;-4.186968;-5.312883;-6.145748;-7.327146;-5.652831;-5.889638;-4.485410;-5.263292;
3.363281;-3.689802;-3.363119;-5.072483;-6.555139;-0.422086;-5.604931;-3.210273;-3.858185;
3.367188;3.687926;6.430755;4.286369;3.013410;9.695041;-0.180466;5.173404;3.467110;
3.371094;5.225059;7.866001;5.853536;4.694204;7.774108;0.956391;7.085481;4.703874;
3.375000;1.087481;2.321768;0.890503;-0.648274;1.307060;-1.459612;2.814248;0.556876;
3.378906;-6.057559;-6.666290;-6.817141;-8.744897;-3.261102;-6.500807;-4.616077;-5.824412;
3.382813;-3.507279;-3.225945;-3.677931;-4.586717;-1.385814;-4.572118;-3.408230;-3.319670;
3.386719;3.903904;6.176104;3.829369;4.682641;2.105935;0.910639;2.749126;3.374996;
3.390625;3.047704;5.105639;1.707094;2.864615;2.107213;0.644489;2.553819;3.015306;
3.394531;-0.916404;0.764205;-2.803515;-2.098945;1.651131;-1.483069;-0.154998;0.303075;
3.398438;-4.412528;-3.318031;-6.360799;-6.010980;-2.118720;-4.629913;-3.792698;-2.636120;
3.402344;-0.692006;1.029925;-1.688010;-1.351572;-2.464613;-2.103922;-1.561387;0.113485;
3.406250;3.933357;6.535288;3.760844;4.786701;0.423579;2.443246;2.415454;4.223166;
3.410156;-1.021722;0.043454;-2.539883;-1.096277;-1.956260;-1.013353;-1.986236;0.375702;
3.414063;-2.912419;-2.517962;-5.514802;-3.701563;-3.139896;-1.865869;-4.067358;-0.853669;
3.417969;2.893257;3.610383;0.320154;2.971314;-0.468059;5.191848;1.122677;4.986714;
3.421875;12.333286;13.498443;10.447916;13.577352;6.175929;15.340590;10.473648;14.062917;
3.425781;15.379027;16.343420;13.990978;16.350473;10.384498;17.316864;13.955645;16.689070;
3.429688;6.605624;5.494249;4.718988;5.267629;5.854656;7.410704;5.893903;8.472130;
3.433594;2.519737;1.610862;1.123844;1.094620;3.502819;2.445595;2.270401;4.818270;
3.437500;4.511206;5.966013;3.984087;4.705119;2.291015;3.551960;4.866638;6.675536;
3.441406;6.093359;9.192700;5.966280;6.781662;-1.486411;4.539760;6.798524;7.824776;
3.445313;4.504879;7.400844;4.614145;5.180830;-3.582357;3.911687;5.023509;6.016403;
3.449219;-3.349141;-2.914725;-3.818263;-3.348352;-4.205229;-1.359754;-2.574292;-1.329361;
3.453125;-4.162521;-3.360828;-4.267365;-3.382026;-0.212316;-1.764482;-3.132848;-2.472363;
3.457031;-0.260994;3.311214;0.249708;2.065229;0.466648;0.259872;0.881259;0.804843;
3.460938;-2.020856;1.987446;-2.206185;-0.070265;-6.645426;-2.433724;-0.348565;-0.613241;
3.464844;-6.036078;-3.678511;-6.632542;-5.038433;-11.874018;-5.750553;-3.669714;-4.438339;
3.468750;-11.330661;-11.754642;-11.219525;-10.853347;-10.961288;-9.684887;-9.143421;-10.337903;
3.472656;-8.205482;-9.175339;-5.981930;-6.359734;-0.916813;-6.793806;-7.971350;-9.045030;
3.476563;-0.684682;-1.133352;2.267372;2.069007;6.517532;-0.720578;-1.862203;-3.205759;
3.480469;-1.978676;-4.035038;-1.116687;-1.739690;2.089646;-3.202869;-2.290960;-4.518065;
3.484375;-6.894978;-9.248950;-7.390957;-8.848667;-4.355600;-9.841479;-5.819907;-8.840097;
3.488281;-11.106230;-12.200968;-11.314819;-13.152970;-8.636293;-14.928945;-9.417423;-12.528933;
3.492188;-7.231611;-6.768201;-6.006837;-7.473286;-4.706054;-10.053029;-6.259804;-9.008137;
3.496094;-1.935293;-1.703114;-0.049280;-0.655878;0.640251;-2.764631;-2.090517;-4.230503;
3.500000;-7.731474;-11.146048;-7.144305;-7.364104;-3.894565;-6.217796;-8.550775;-9.367063;
3.503906;-11.759257;-16.716541;-10.957884;-10.765928;-6.607031;-8.921246;-13.391809;-12.680551;
3.507813;-10.072777;-12.932642;-7.539667;-7.452057;-5.858459;-7.861706;-11.709053;-10.553804;
3.511719;-6.197270;-6.525562;-2.643002;-4.137538;-5.664803;-6.834654;-7.061491;-7.162060;
3.515625;-4.977028;-5.574486;-2.127463;-4.693516;-6.943106;-8.119390;-5.367964;-7.315063;
3.519531;-10.019232;-14.021833;-9.269383;-11.118910;-9.593383;-12.466597;-10.022710;-12.614618;
3.523438;-6.199758;-10.477880;-5.666481;-5.667223;-2.751158;-6.536459;-6.351631;-8.241113;
3.527344;4.041144;2.433126;5.229197;6.839527;5.602444;5.336794;3.003324;2.408387;
3.531250;9.635900;9.569510;9.905734;11.830535;4.865232;10.792184;7.448614;7.813472;
3.535156;9.323724;9.618860;8.251803;9.804174;1.156372;9.318214;7.148004;7.704676;
3.539063;1.979522;2.133888;0.369007;1.479149;-1.425022;2.716390;1.855786;2.269311;
3.542969;0.949532;3.526184;0.702558;1.860841;2.769797;2.369317;2.329452;2.042390;
3.546875;5.921648;10.577603;6.534343;7.806587;7.151929;6.144919;6.683827;5.568261;
3.550781;6.334530;9.129306;5.738022;6.434642;5.537271;5.937897;5.893117;5.251214;
3.554688;3.648245;4.397279;2.117551;3.026359;2.771852;4.725555;2.963599;4.273015;
3.558594;-0.604278;-0.873624;-2.109768;-0.631815;-0.539168;2.009716;-1.068472;2.125610;
3.562500;3.707716;3.784648;3.600783;4.650685;3.767325;4.765851;1.856235;5.001185;
3.566406;10.623796;10.244944;10.945091;12.031095;9.886165;10.372572;6.915814;9.002335;
3.570313;7.138602;3.998036;5.350994;7.365082;5.783424;9.385425;3.717512;5.682368;
3.574219;2.045269;-1.289245;-0.614668;1.670329;-0.053425;6.002049;0.432186;2.363796;
3.578125;-0.358725;-1.353253;-1.947946;-0.873580;-2.804709;1.873980;-0.586948;0.648315;
3.582031;4.894142;6.262908;4.686960;4.932140;1.920081;5.255435;4.421917;5.216114;
3.585938;10.867692;12.670345;10.726286;11.630711;7.788122;11.967340;10.083607;10.947660;
3.589844;2.954643;2.772221;1.540724;2.320421;1.526610;5.341979;3.585545;3.963142;
3.593750;-5.151488;-5.382344;-5.946705;-5.986226;-5.236212;-3.729437;-3.262668;-4.298442;
3.597656;-4.341790;-3.762118;-3.534365;-3.572899;-3.971665;-3.816437;-3.147702;-4.833709;
3.601563;1.118302;1.303059;2.143282;2.519147;0.428434;1.973860;0.277001;-0.667983;
3.605469;2.306440;1.490241;1.999527;2.767248;-1.192900;3.533619;0.019466;0.208341;
3.609375;-5.750212;-8.749584;-7.947747;-7.363002;-9.215905;-4.235466;-8.262699;-6.901295;
3.613281;-5.994075;-8.763048;-7.833538;-7.220228;-6.054211;-5.181516;-8.974597;-6.744734;
3.617188;1.786951;1.025918;1.227180;2.689192;3.650449;2.264418;-1.611459;1.130893;
3.621094;5.154317;4.703212;4.907556;6.540915;6.332342;6.503298;2.142797;5.149762;
3.625000;2.292126;1.647342;1.959828;2.727065;3.202245;3.654668;0.310247;3.081749;
3.628906;-4.932138;-5.363159;-6.457733;-6.556624;-4.874814;-4.512551;-5.464600;-3.101791;
3.632813;-2.191199;-0.209719;-4.047999;-3.858552;-7.551978;-2.877937;-2.259522;-0.354094;
3.636719;5.435611;9.275044;4.674018;5.336604;-3.087988;4.446297;5.459637;6.423320;
3.640625;3.177037;5.106765;2.992081;2.589404;0.852599;2.515667;4.183500;3.801666;
3.644531;-1.992698;-2.275052;-1.977697;-3.123694;2.576701;-2.456643;-0.383734;-1.479569;
3.648438;-3.930444;-5.369014;-3.768202;-4.322560;0.584587;-3.447682;-2.315243;-3.313200;
3.652344;3.622824;2.820309;5.292336;4.717226;5.908427;4.214455;4.905597;3.234883;
3.656250;10.712394;10.338377;13.567026;11.724439;14.505923;10.112558;11.316662;8.663510;
3.660156;3.810226;1.645178;5.069145;2.135787;9.288589;2.943365;4.040998;2.198796;
3.664063;-2.993104;-5.096013;-3.257183;-5.517667;-1.230716;-3.904192;-2.940489;-2.815597;
3.667969;-2.049487;-2.938286;-2.427029;-3.427100;-4.286954;-3.631003;-2.010395;-1.058473;
3.671875;5.329211;5.316762;6.039114;5.241386;4.152302;2.907756;5.430237;5.323859;
3.675781;8.830171;9.166708;10.323300;9.356307;9.962448;6.759489;8.868768;7.933407;
3.679688;0.252735;-0.879560;0.403956;-0.693791;0.793450;-0.168645;0.013881;0.076820;
3.683594;-2.182672;-3.113305;-2.763472;-3.406986;-3.753341;-2.135281;-3.100973;-1.867874;
3.687500;3.489436;4.299620;3.682315;3.978045;2.278206;3.320034;2.358687;3.896127;
3.691406;6.020411;7.754527;7.300173;7.391485;6.698678;5.493682;5.189157;6.271474;
3.695313;2.037464;3.201474;3.423138;2.200356;2.756222;0.226816;1.577236;1.355758;
3.699219;-7.201599;-8.214030;-7.517536;-9.635166;-7.248505;-9.595443;-6.967469;-8.391856;
3.703125;-6.463868;-6.657552;-6.999264;-8.504136;-6.525059;-8.494614;-6.004507;-7.798500;
3.707031;0.743291;2.973114;1.520671;0.678584;1.716465;-1.004147;1.056926;-0.357724;
3.710938;2.939432;5.031784;3.919190;2.346928;4.588764;0.778124;3.399998;2.474371;
3.714844;2.416041;3.257329;2.350073;0.930893;2.516391;0.083674;2.952106;2.242601;
3.718750;-0.973538;-1.733554;-2.790997;-2.421955;-3.726097;-1.645125;-0.758158;-0.881599;
3.722656;2.120149;1.956571;0.562812;2.327161;-2.940456;2.551661;1.511092;1.962943;
3.726563;7.050642;8.200667;7.210260;8.744481;3.855051;7.051454;6.404231;6.844988;
3.730469;1.069520;0.774731;1.207577;1.583746;2.724424;1.551304;1.259372;1.953727;
3.734375;-6.917163;-8.609192;-8.069723;-7.316042;-4.848017;-4.765904;-6.976186;-5.190706;
3.738281;-9.333276;-11.550906;-11.548865;-9.307746;-10.677961;-6.013887;-10.637149;-7.627061;
3.742188;-1.577164;-3.010510;-2.727004;-0.223553;-5.015213;0.690947;-4.145010;-1.102246;
3.746094;4.781315;4.083290;4.836315;6.645019;0.597005;5.847722;1.972799;4.079331;
3.750000;-3.397828;-5.751443;-4.852052;-3.694661;-8.121965;-1.556560;-5.092082;-3.733813;
3.753906;-10.163345;-12.996578;-12.489625;-11.570430;-13.608442;-8.273759;-10.881067;-10.245918;
3.757813;-7.879973;-9.437753;-9.152349;-8.532556;-7.474328;-7.156501;-7.915672;-8.153926;
3.761719;-0.669874;-0.391325;-0.733418;-0.645038;1.963485;-0.760100;0.161256;-1.239034;
3.765625;2.693437;3.688060;2.775489;2.308597;5.077062;2.035034;4.335335;1.621852;
3.769531;-3.234097;-4.511688;-4.074982;-5.462371;-0.936379;-4.462333;-1.233112;-4.202033;
3.773438;-2.497987;-4.116242;-2.840401;-4.238611;-1.791041;-4.145111;-0.841567;-3.009856;
3.777344;4.579006;4.998100;5.259570;4.842985;3.201223;3.664797;6.226227;4.701397;
3.781250;7.274279;8.326187;7.921339;7.394026;6.716243;6.830410;9.392668;7.316713;
3.785156;4.193843;4.246393;4.236009;2.970752;5.963211;2.914599;6.737219;3.245698;
3.789063;-3.536184;-5.318290;-4.721325;-5.842671;-1.302219;-4.671036;-0.790195;-4.595722;
3.792969;-2.764549;-3.702293;-3.286669;-3.683918;-2.644430;-3.333684;-1.062685;-3.620426;
3.796875;2.348040;3.249621;3.755505;3.235612;0.671877;1.635692;2.771211;1.740570;
3.800781;0.394380;0.552985;1.610743;0.339053;-1.209890;-0.353020;0.621400;0.574166;
3.804688;-3.898899;-4.907625;-4.282862;-4.850413;-3.595182;-3.652242;-3.851249;-2.940276;
3.808594;-7.791995;-9.386420;-9.316393;-8.034794;-5.083435;-5.109847;-8.365706;-5.656787;
3.812500;-2.243196;-2.262531;-2.641119;0.036706;-0.947422;1.551983;-3.844930;0.361353;
3.816406;5.379993;6.878621;6.489783;9.529062;2.713998;8.360400;2.841220;7.543453;
3.820313;0.353465;0.270837;0.824574;2.976373;-4.201036;3.075892;-2.088148;2.632598;
3.824219;-6.068261;-6.890177;-5.808588;-5.018016;-9.227661;-3.588296;-7.194708;-4.035445;
3.828125;-6.596719;-6.984749;-5.141171;-5.593351;-5.303546;-5.185550;-6.185966;-5.807878;
3.832031;0.354563;0.532913;3.136528;2.695935;3.981394;0.899663;0.379421;-0.329928;
3.835938;5.632395;5.694476;7.687097;9.155688;7.099746;7.628406;4.299022;5.250574;
3.839844;-1.412915;-3.127111;-2.052345;0.428997;-0.735275;2.986820;-2.329644;0.417864;
3.843750;-4.979620;-6.265995;-6.073153;-4.635867;-2.968809;-1.615245;-4.467177;-2.394087;
3.847656;1.555856;1.860274;1.500650;1.950833;1.938633;2.226457;2.267213;3.045983;
3.851563;10.832748;11.866201;11.142966;11.516050;7.172572;10.285590;10.096830;10.963461;
3.855469;11.507621;13.371388;11.882740;11.934532;9.130137;10.442817;10.677209;11.433873;
3.859375;0.683220;2.717288;0.641401;-0.857835;5.345991;-1.020385;2.566936;2.228252;
3.863281;-0.492093;3.194481;0.053030;-2.420787;6.559262;-3.565073;3.175999;1.727975;
3.867188;5.959867;11.345937;7.144958;5.812795;8.237142;2.259054;9.044512;7.239739;
3.871094;5.693840;10.461982;6.313803;6.410342;2.727555;2.828761;7.830968;6.251639;
3.875000;1.344709;4.711410;1.584916;1.200547;-2.272820;-1.195553;3.063655;1.409266;
3.878906;-3.733431;-2.244534;-3.472331;-6.026239;-3.738408;-6.676869;-1.978193;-4.313306;
3.882813;0.527768;2.307884;2.181876;-1.285024;3.488427;-2.581749;2.355434;-0.964669;
3.886719;7.234141;10.112561;10.201094;7.395680;12.421545;4.788083;9.469176;5.609015;
3.890625;3.660725;5.601868;5.812609;2.869583;11.581882;1.406924;6.727381;2.761708;
3.894531;-2.216795;-1.103567;-1.445208;-4.107659;5.688437;-5.133509;1.457523;-2.754993;
3.898438;-5.026966;-4.793277;-5.272865;-6.483357;-0.645972;-7.467863;-1.646056;-5.225652;
3.902344;0.575640;1.303908;0.839978;0.452486;-0.647323;-1.514560;1.929450;0.346453;
3.906250;5.234177;6.766255;6.500074;5.879032;1.235195;3.327290;4.728240;5.092928;
3.910156;-2.897624;-3.361809;-2.033285;-3.073577;-3.084297;-2.604357;-2.746113;-1.742255;
3.914063;-9.615976;-11.287685;-9.256450;-9.155015;-6.262989;-6.459832;-7.900193;-7.363455;
3.917969;-9.170944;-10.489862;-9.376124;-7.324840;-7.296744;-4.359405;-7.329073;-6.874567;
3.921875;-4.396004;-4.984264;-4.210823;-2.455632;-3.487101;-0.839156;-4.242127;-3.267005;
3.925781;-2.966366;-3.635098;-1.843907;-2.091098;0.879611;-1.853981;-4.292711;-2.878189;
3.929688;-10.341759;-13.130681;-10.205781;-10.972891;-4.842214;-8.546977;-11.256773;-9.528689;
3.933594;-10.577126;-13.424570;-10.881039;-10.053806;-8.131467;-7.006475;-10.575960;-9.390235;
3.937500;-2.717454;-3.730234;-1.990088;-0.248404;-2.598017;0.301094;-2.435811;-2.494342;
3.941406;3.452604;3.471309;4.564050;5.786874;4.179609;4.478414;3.363167;3.009065;
3.945313;3.653111;3.410475;3.620646;4.808774;4.203439;3.944535;3.353561;4.063038;
3.949219;-2.446574;-4.272404;-4.141918;-3.553920;-2.616338;-1.764615;-1.725341;-0.679739;
3.953125;0.973797;0.301092;0.251584;-1.459673;1.061895;-1.175609;2.578150;1.095716;
3.957031;10.556844;12.204756;11.737632;7.992188;11.264469;3.917661;11.909699;7.177965;
3.960938;11.316317;12.621249;12.531312;8.846971;11.341286;4.604585;12.333114;6.887311;
3.964844;4.688465;4.933439;5.173441;2.821661;3.088544;1.209843;6.177588;1.427235;
3.968750;-4.432943;-4.799741;-5.062661;-7.500574;-6.246670;-7.045062;-2.132680;-6.902679;
3.972656;-3.127969;-1.228860;-3.717474;-6.768937;-5.199200;-8.140017;-1.344009;-5.946387;
3.976563;3.539553;8.216937;3.537976;2.011688;1.260594;-1.322380;4.326141;1.704580;
3.980469;1.662494;5.326110;1.177433;1.605823;1.764622;0.672989;2.915085;2.515058;
3.984375;-0.988330;1.297893;-1.028568;-0.717588;0.850757;-0.430760;1.316394;0.885018;
3.988281;-0.300276;2.083661;0.521429;-0.095706;-2.480606;-0.798720;1.904651;1.021451;
3.992188;5.901170;9.908180;6.775646;7.404280;-3.262353;5.339721;6.272140;6.962085;
3.996094;9.108702;13.263558;9.286202;11.432939;2.032251;9.232884;8.189806;10.311998;
4.000000;-0.129424;0.319261;-0.721873;-0.604523;4.342213;-0.191644;0.150970;1.170320;
4.003906;-5.983803;-6.625998;-5.910074;-7.683473;3.083611;-6.717546;-4.197055;-4.591060;
4.007813;-2.786402;-0.744495;-2.371692;-2.454794;0.916714;-3.342756;-1.429854;-0.695172;
4.011719;5.382678;9.552216;5.243213;6.940945;4.221197;4.435490;4.856599;7.305254;
4.015625;8.997360;12.388274;8.236615;9.167057;6.013781;7.167823;8.036736;9.885661;
4.019531;0.028970;0.317524;-1.556451;-2.810176;-3.831888;-1.488445;0.644155;0.508745;
4.023438;-2.818616;-2.591523;-3.643563;-6.033896;-6.281106;-4.667957;-2.204153;-3.647675;
4.027344;3.841309;5.850605;3.969265;1.931336;2.416299;1.081796;2.891966;1.470244;
4.031250;7.442097;9.451702;7.093380;5.497609;7.537229;4.508976;6.236712;5.193284;
4.035156;4.582184;5.862939;3.432280;2.257443;5.168695;1.950031;4.517915;3.815491;
4.039063;-2.087258;-2.027886;-4.315592;-5.100814;-0.893168;-3.842091;-1.706463;-1.030932;
4.042969;2.186578;2.727433;0.111018;0.233410;1.926387;0.695891;0.977785;3.070990;
4.046875;9.069233;10.603596;7.791930;9.441278;6.356407;7.821105;6.612847;8.883398;
4.050781;2.885514;3.532037;1.545159;3.345623;1.060253;2.618633;1.010618;3.335336;
4.054688;-5.652964;-6.412104;-7.154626;-6.403361;-4.954714;-5.638999;-7.311269;-4.462718;
4.058594;-7.719412;-10.596162;-9.693828;-9.211645;-7.854952;-7.695970;-10.478970;-7.236163;
4.062500;0.248000;-2.949271;-1.317262;0.546065;-4.587136;1.004740;-4.186677;-0.729375;
4.066406;5.950192;3.332741;4.989874;8.633298;-0.737412;9.004302;0.741880;4.763759;
4.070313;-1.409665;-5.979310;-2.845970;0.519252;-3.071867;3.716251;-5.746996;-1.641576;
4.074219;-7.385441;-12.882865;-8.409366;-6.338845;-4.332589;-2.994507;-10.443002;-7.381476;
4.078125;-6.739298;-10.510826;-7.203687;-5.083411;-6.844622;-3.417816;-9.108541;-6.434676;
4.082031;-1.259571;-1.530164;-1.643751;1.305372;-9.713694;1.606906;-3.855359;-0.670253;
4.085938;0.335240;1.897253;-0.439327;2.465799;-10.552992;2.518903;-2.511438;0.856791;
4.089844;-8.086620;-9.290662;-10.183089;-8.068949;-11.532940;-5.508056;-10.624439;-6.852428;
4.093750;-9.458094;-12.613631;-11.416492;-9.085050;-6.094611;-5.893442;-12.134185;-7.711182;
4.097656;-2.421659;-4.676316;-2.666276;-0.291002;1.031282;1.476057;-5.138729;-1.146066;
4.101563;2.772115;2.237720;4.119432;4.877337;4.144100;5.192122;0.801988;2.783708;
4.105469;1.113614;1.219065;2.330103;1.879352;1.081670;1.266499;0.059022;0.095792;
4.109375;-6.671290;-8.471680;-7.413002;-8.168796;-8.425735;-6.855216;-7.183141;-7.472721;
4.113281;-4.846324;-6.722934;-5.262712;-6.536947;-7.200070;-5.012266;-5.607782;-5.813932;
4.117188;2.654545;2.355799;4.301413;2.438653;2.682881;1.812512;1.449381;1.251233;
4.121094;3.834816;3.304453;5.546199;4.298468;4.219834;3.758081;2.383230;3.135421;
4.125000;0.125667;-2.006179;0.299018;1.297036;-1.575321;2.850961;-1.072508;0.682980;
4.128906;-6.157890;-10.805796;-7.120856;-5.120426;-5.442797;-1.238611;-6.253670;-5.084877;
4.132813;-3.192318;-7.274862;-2.503876;-2.151110;1.343680;-0.480042;-2.776967;-3.964950;
4.136719;1.835185;0.469000;4.700078;3.104500;5.869398;0.603488;2.031163;-1.419365;
4.140625;-3.723462;-5.322931;-1.548607;-3.239485;-2.041808;-5.412124;-3.501692;-7.199868;
4.144531;-7.684998;-10.667715;-7.349864;-6.889781;-7.346273;-7.054358;-7.469881;-9.579734;
4.148438;-5.315850;-8.805131;-6.463496;-3.815040;-5.412954;-2.389863;-5.522448;-5.449754;
4.152344;2.062278;0.016366;0.902454;4.164934;0.469040;5.364758;0.585016;1.832232;
4.156250;4.840858;4.028717;4.062824;7.147742;1.797490;7.651104;2.784895;3.739213;
4.160156;-1.659405;-3.568684;-3.208738;-0.852104;-3.844709;1.385448;-2.307177;-2.145236;
4.164063;-1.572247;-2.903881;-2.680567;-1.251191;-2.764360;1.082097;-0.823483;-1.454628;
4.167969;2.825461;3.104031;3.497109;4.011918;2.389223;4.609595;3.637157;2.681151;
4.171875;4.949217;5.966760;7.532613;7.301783;5.547531;6.482293;4.813025;4.086484;
4.175781;2.093719;2.894971;5.233444;4.885699;2.948670;4.518626;1.868824;1.168036;
4.179688;-8.570791;-9.562032;-7.024177;-7.642167;-6.845647;-5.311682;-7.048524;-8.677089;
4.183594;-12.077991;-13.398182;-11.103430;-11.732263;-8.319878;-10.407530;-9.721578;-13.056822;
4.187500;-6.929560;-7.984812;-5.406315;-5.230247;-1.970647;-6.872559;-5.751413;-9.864301;
4.191406;-1.016350;-2.540277;0.787016;1.322142;2.744688;-0.633088;-1.209124;-4.898578;
4.195313;-0.319930;-2.101279;1.247984;1.474529;2.085135;0.503617;-0.663091;-4.035810;
4.199219;-8.721238;-11.932196;-8.714756;-8.592268;-5.929810;-7.764926;-8.694552;-11.457463;
4.203125;-8.739820;-12.308931;-9.122171;-8.206748;-6.813573;-7.939187;-9.997701;-11.308721;
4.207031;-0.499209;-3.483097;0.197875;1.473200;-0.188822;0.167163;-3.496572;-3.529643;
4.210938;1.801946;-1.351705;2.635576;2.787362;2.015815;2.184525;-0.956261;-0.957977;
4.214844;-0.655377;-3.505813;-0.925763;-0.832513;-0.394251;-0.210664;-1.763463;-1.951624;
4.218750;-5.107860;-7.842047;-6.660071;-5.286470;-4.344579;-3.065368;-4.486188;-3.869968;
4.222656;-2.021415;-3.262295;-2.244659;-0.894948;0.034118;-0.021637;-0.683572;-0.195522;
4.226563;2.897298;3.141057;4.795385;4.480245;5.942159;2.612724;4.302609;3.144635;
4.230469;-1.028895;-1.664617;0.447053;-1.255457;1.399184;-1.752684;0.619567;-0.955714;
4.234375;-3.809786;-4.767961;-3.662349;-4.211112;-4.937574;-2.582502;-2.535693;-2.097340;
4.238281;-2.218988;-3.012960;-3.233769;-1.244231;-7.253592;1.021423;-2.122638;1.042080;
4.242188;4.300246;4.586170;3.614344;6.277084;-0.490423;7.113026;3.196337;7.053821;
4.246094;7.288548;8.587215;7.691404;8.622569;6.541993;8.321036;5.967618;8.343582;
4.250000;-0.405724;-0.680602;-0.655626;-1.739240;1.009812;0.296652;-0.911731;0.083154;
4.253906;-2.391975;-3.219053;-3.230084;-3.939006;-2.381688;-1.374042;-2.256121;-1.849841;
4.257813;3.045444;3.212058;2.405967;3.559199;2.593279;4.319677;3.053261;3.631607;
4.261719;7.921271;9.078934;7.823506;9.287331;8.397202;8.709228;6.921169;8.229585;
4.265625;6.119539;7.478533;6.449532;6.335102;7.188370;5.267671;5.025527;6.290281;
4.269531;-4.337004;-4.693807;-4.817925;-6.774180;-2.982973;-6.678405;-3.334160;-3.760955;
4.273438;-6.127430;-6.379481;-6.705086;-9.025791;-5.489333;-9.732818;-3.583908;-6.443778;
4.277344;1.334077;2.647272;1.773972;-0.316143;2.147176;-2.416284;3.383289;-0.202906;
4.281250;7.481944;8.958448;8.577945;5.942074;9.459156;4.485338;8.413633;6.312879;
4.285156;7.854999;9.126164;8.365615;5.686859;8.713473;4.628066;8.920654;8.061906;
4.289063;-0.710299;0.780024;-1.696316;-4.157378;-2.486071;-4.658312;2.418028;0.914262;
4.292969;-2.713756;1.541319;-2.511844;-5.690210;-5.922619;-7.646744;2.041315;-1.500904;
4.296875;2.436356;8.895773;5.311783;0.847346;1.123620;-3.237007;6.964450;2.071477;
4.300781;1.423133;5.764237;4.415618;-0.757638;4.890909;-3.894070;4.847134;0.452033;
4.304688;-2.936858;-1.620003;-1.386657;-5.522830;4.328790;-6.887912;-0.425894;-3.533377;
4.308594;-6.271986;-6.771694;-5.683349;-8.212476;1.262052;-8.263213;-4.169631;-5.887194;
4.312500;-0.529679;-0.009181;1.243047;-0.657586;3.828083;-2.551049;0.398145;-0.367418;
4.316406;5.138557;7.036752;8.161872;5.809844;6.526618;1.303898;4.821336;3.761359;
4.320313;-2.107414;-2.049904;-0.499273;-3.865556;-1.629794;-6.625570;-2.052989;-4.318514;
4.324219;-8.158466;-9.469793;-8.178549;-11.212771;-9.724356;-12.132326;-7.396416;-10.341247;
4.328125;-6.581701;-7.835595;-7.085938;-8.549303;-9.905000;-9.467285;-5.958419;-8.040489;
4.332031;1.644284;1.213876;1.906876;1.219736;0.530392;-1.308992;1.395435;0.432559;
4.335938;7.949947;7.933290;8.569219;8.036517;10.415728;4.151445;7.043587;6.646099;
4.339844;3.586581;2.450912;2.258494;2.316325;6.032502;1.028043;2.925395;3.808215;
4.343750;2.858785;3.581170;0.463971;1.810045;1.506580;2.708038;2.716429;5.165526;
4.347656;8.104580;12.739025;6.519408;8.658816;4.145450;9.724553;8.849569;11.530993;
4.351563;12.900080;19.494415;12.431497;14.162963;10.082864;15.264898;14.592095;16.332447;
4.355469;11.514306;17.169144;11.259659;12.664368;12.157968;14.382530;13.638425;15.155032;
4.359375;-0.385292;2.269258;-1.903625;-0.481407;2.750810;3.169429;1.881539;4.471484;
4.363281;-4.603391;-1.520794;-5.814900;-4.309918;-3.130509;-2.044192;-2.524957;0.053587;
4.367188;2.151460;7.820735;2.476322;3.909555;1.013689;3.295602;4.241958;5.234990;
4.371094;8.013681;13.397778;8.312295;9.425759;6.832026;9.667987;9.731228;10.334352;
4.375000;9.103385;12.223042;8.093276;9.587882;8.206084;12.323975;9.683917;11.841861;
4.378906;4.107173;5.084165;1.658230;3.558353;2.575345;7.929755;4.748200;7.782476;
4.382813;6.687181;9.192105;5.000149;6.706516;3.860904;8.424118;8.320561;9.959367;
4.386719;14.278200;19.287529;13.971721;15.745793;9.619733;13.691434;15.833779;16.492376;
4.390625;11.951651;15.747551;10.680525;12.677655;5.447385;11.402337;12.035440;14.399336;
4.394531;4.864798;6.507735;2.254099;4.297739;-1.451211;5.269126;3.512785;8.119514;
4.398438;0.421662;0.819079;-2.023346;-0.704855;-1.996913;1.359744;-0.959938;3.977410;
4.402344;5.534601;7.325252;4.994255;5.421933;5.417068;5.553275;4.464360;7.971295;
4.406250;9.273042;13.095514;9.539288;10.248061;6.434850;8.498496;8.342758;10.710572;
4.410156;0.658801;2.771700;-0.824722;0.398773;-3.301235;1.070954;0.313567;2.914965;
4.414063;-2.519953;-2.501444;-4.559382;-3.002536;-2.781733;-0.997457;-2.450438;0.247029;
4.417969;3.301550;3.324319;2.309488;4.207051;4.943922;5.032065;3.532152;5.320267;
4.421875;8.675025;10.077642;8.805924;10.416331;6.907016;9.672851;8.668697;9.485360;
4.425781;5.868132;7.092896;6.201807;6.968329;3.342572;6.253205;5.167209;6.529154;
4.429688;-5.475286;-7.260083;-6.437952;-6.468312;-2.933623;-4.229925;-6.466094;-3.330429;
4.433594;-7.999099;-9.893918;-9.426764;-9.356129;-4.520898;-7.460721;-8.983650;-5.866667;
4.437500;-2.877221;-2.852655;-3.946873;-3.844155;-4.368067;-5.078490;-4.152966;-3.080146;
4.441406;-0.000223;-0.014984;-0.518195;-1.656516;-3.847584;-3.700237;-2.065593;-2.355891;
4.445313;-1.092834;-2.363002;-1.177713;-3.348941;-2.261997;-4.210479;-3.371216;-3.762170;
4.449219;-6.720902;-9.900254;-7.835454;-10.274628;-4.715336;-9.041830;-7.882139;-8.490456;
4.453125;-4.611787;-7.069802;-5.705397;-7.894896;-3.537796;-7.726582;-5.077069;-6.660914;
4.457031;1.214913;0.737245;1.352902;-0.013721;-0.568973;-1.833645;0.448048;-1.551127;
4.460938;-0.361565;-1.271674;-0.299199;-0.942388;-2.380476;-1.486887;-1.638761;-2.776415;
4.464844;-4.734953;-6.823663;-5.561850;-5.646332;-4.916174;-5.156714;-6.484960;-6.500099;
4.468750;-8.762308;-11.686012;-10.330240;-10.168080;-7.988350;-9.579096;-10.437222;-9.643428;
4.472656;-4.342358;-5.227870;-4.771011;-4.437832;-5.522887;-5.048442;-5.715261;-4.746788;
4.476563;0.789988;2.554961;1.848746;2.402193;-2.237800;1.339882;-0.034375;0.480150;
4.480469;-3.708218;-3.399902;-3.338974;-2.975022;-5.043653;-1.316002;-3.658289;-3.870562;
4.484375;-4.706963;-6.506491;-4.895373;-4.247056;-3.097261;-1.038378;-4.079265;-5.126960;
4.488281;-0.945324;-2.945818;-0.204080;0.592811;1.626021;3.246350;0.041551;-1.431650;
4.492188;2.828132;2.704617;5.497782;5.194208;2.165649;5.091417;3.071631;1.414164;
4.496094;0.092816;1.130846;3.239536;1.556443;-3.815498;-0.814255;-0.790170;-2.978801;
4.500000;-9.904783;-11.224248;-8.908709;-11.454941;-11.150085;-11.833220;-10.305887;-12.974365;
4.503906;-9.072644;-11.716393;-9.233978;-11.028021;-7.310784;-10.976745;-8.922911;-11.263101;
4.507813;-0.478386;-2.213522;0.067260;-0.129091;0.668361;-2.345654;-0.793395;-2.314087;
4.511719;4.138989;3.758805;6.418319;6.076712;6.257509;2.503688;3.958287;1.835844;
4.515625;1.594122;1.614844;5.008967;3.270063;6.628820;0.662227;3.323810;-0.794693;
4.519531;-6.485341;-8.298170;-4.369714;-7.093791;-0.695367;-6.770725;-2.773678;-7.841683;
4.523438;-5.077298;-7.103347;-3.504535;-6.533191;0.017473;-7.040036;-2.079345;-6.942765;
4.527344;1.238487;0.376417;3.403767;0.633703;6.169637;-2.176360;2.062403;-2.020889;
4.531250;2.706865;1.936376;3.766058;2.586571;4.683850;0.894374;2.194025;0.033879;
4.535156;2.150851;0.844563;0.579492;2.474768;-1.164040;2.578459;1.391279;1.444785;
4.539063;-0.724724;-3.414677;-4.332558;-0.358111;-5.258584;0.962563;-1.387963;0.137308;
4.542969;2.864093;1.119380;0.556583;4.709615;0.639670;4.634822;1.190382;3.478081;
4.546875;6.701194;6.737363;6.544886;10.035727;6.049494;8.483838;3.845874;6.424220;
4.550781;0.352277;-0.937940;0.103345;2.461313;-0.481106;2.647688;-2.442100;-0.139562;
4.554688;-6.095222;-9.245106;-6.920934;-5.227945;-7.251831;-4.238985;-8.300073;-7.059430;
4.558594;-7.319577;-10.665654;-8.160663;-6.868990;-6.784572;-6.600568;-8.752352;-8.986259;
4.562500;-0.500463;-1.035111;0.067122;0.763640;0.817180;-0.519777;-1.282451;-2.884711;
4.566406;3.808527;5.229283;5.320815;5.724914;3.773753;4.451000;3.713599;1.481974;
4.570313;-2.561929;-3.482736;-2.333717;-2.674399;-1.446261;-1.030066;-1.641885;-3.812097;
4.574219;-4.958371;-6.846987;-5.054229;-6.400607;-0.342463;-4.187824;-3.369171;-5.323533;
4.578125;-2.328922;-2.446907;-1.516821;-2.982929;3.022241;-1.848137;-0.649589;-1.925085;
4.582031;1.767727;3.607583;3.334107;2.518313;3.509983;2.660433;3.078075;1.940974;
4.585938;2.083302;3.994493;3.603066;2.803813;1.128712;2.546380;3.881062;1.238921;
4.589844;-6.100196;-6.472991;-5.456916;-7.655331;-4.515248;-5.880311;-2.924415;-6.790799;
4.593750;-8.073708;-8.535083;-7.172794;-9.587078;-3.450838;-7.540190;-5.607515;-8.151555;
4.597656;-3.212004;-2.467924;-2.040071;-2.445969;-0.019307;-1.928547;-3.409542;-2.827636;
4.601563;1.188338;1.472073;2.060571;3.052570;1.134928;2.464185;-0.589003;1.436473;
4.605469;0.936025;-0.554130;1.544208;2.120591;0.648655;0.798662;-0.321493;0.128602;
4.609375;-6.709767;-10.773966;-7.350578;-7.988347;-4.938967;-8.183764;-6.940165;-8.429723;
4.613281;-5.729643;-9.553805;-6.751259;-7.684731;-4.394855;-8.375639;-6.357458;-8.426447;
4.617188;1.898252;-0.431380;1.375939;1.197494;0.810697;-1.011464;0.363340;-1.205664;
4.621094;2.174052;-0.867529;1.573030;1.612394;-0.099515;0.624461;0.304145;-0.210476;
4.625000;-2.973207;-7.190080;-3.505173;-3.901035;-4.173828;-2.380498;-4.792128;-4.220224;
4.628906;-8.557877;-13.218613;-8.777516;-9.768735;-6.591799;-6.251163;-9.418928;-8.393282;
4.632813;-2.192676;-4.503235;-0.975322;-2.055980;1.072471;-0.939134;-2.245205;-2.118480;
4.636719;7.657284;7.584561;9.693376;8.955873;9.022412;6.449104;7.236455;6.158388;
4.640625;3.161687;2.021216;3.777842;2.900212;2.735909;1.341859;2.243192;1.177065;
4.644531;-6.442006;-7.910434;-7.037104;-7.403402;-8.350475;-7.093696;-7.387441;-7.308254;
4.648438;-10.245318;-11.098876;-11.368858;-9.937676;-13.339819;-9.119095;-11.361732;-9.704657;
4.652344;-2.909028;-2.999390;-3.530581;-0.354309;-5.984173;-1.287869;-5.145515;-2.619949;
4.656250;2.943000;2.745261;3.049157;6.464566;0.930496;4.617405;-0.141831;2.761881;
4.660156;-5.186351;-7.428243;-5.742910;-3.846214;-5.477036;-2.538687;-7.774605;-3.958316;
4.664063;-10.458956;-12.686207;-11.689686;-10.331061;-10.945284;-8.223668;-12.560390;-8.267950;
4.667969;-5.886695;-6.547538;-7.912706;-4.824813;-10.239873;-4.704923;-8.139207;-4.106463;
4.671875;4.633741;5.060952;2.797920;7.131244;-3.013321;6.190244;1.674295;5.944115;
4.675781;10.605923;10.770793;10.212424;13.693859;5.495821;14.000885;7.295788;12.645106;
4.679688;2.581988;0.319938;2.278037;4.190972;1.956477;8.462177;0.217573;6.400724;
4.683594;-2.213802;-4.642820;-2.238108;-0.844334;-2.478977;3.955244;-3.861537;1.531254;
4.687500;0.613566;-0.164957;1.482706;2.653064;0.003872;4.505464;-1.436828;2.240202;
4.691406;1.198249;0.764490;2.148274;2.355767;1.730365;2.402273;-1.513419;0.853893;
4.695313;-3.690342;-4.363813;-3.191811;-3.678704;-3.527355;-3.391241;-5.740802;-4.304496;
4.699219;-11.109620;-12.186270;-11.261813;-12.089220;-12.011442;-9.526730;-10.900207;-10.285417;
4.703125;-4.846121;-4.090671;-4.241709;-5.034093;-5.702083;-3.506872;-3.363996;-3.835670;
4.707031;7.358633;10.244677;8.773304;8.515946;7.533268;6.761455;8.734516;7.341846;
4.710938;7.601614;10.331680;8.251562;8.080595;8.103748;6.479289;9.334558;7.918224;
4.714844;-0.104517;2.849761;-0.294004;-0.892037;-0.496521;-0.878281;2.777587;1.620866;
4.718750;-7.405167;-3.757694;-8.170641;-9.459718;-8.604387;-8.694817;-3.747175;-4.923864;
4.722656;-1.533400;3.662352;-1.664888;-2.823848;-4.833786;-4.569630;0.965107;-0.111904;
4.726563;8.025458;13.880184;8.509474;8.713405;3.700129;4.880153;9.131985;8.805615;
4.730469;3.819286;7.777303;3.481501;4.192944;3.608206;3.420002;5.728972;5.909791;
4.734375;-3.586596;-0.282941;-4.026062;-3.862775;0.617162;-2.056955;-0.077065;-0.436910;
4.738281;-5.103188;-1.195879;-5.141399;-5.255378;-0.777963;-3.734364;-1.208616;-1.608447;
4.742188;2.215153;7.358874;3.008521;2.780204;5.130293;2.351810;5.102787;5.399446;
4.746094;8.675875;14.083942;10.251081;8.879745;11.835423;7.704017;10.929880;10.969609;
4.750000;4.435553;6.706324;4.964985;1.671568;7.447043;3.329765;7.252498;6.086023;
4.753906;3.040405;3.309834;2.300014;-0.573548;2.739109;1.669918;5.968051;3.863664;
4.757813;5.945356;7.240936;4.739997;4.208597;2.719505;4.069104;8.256231;6.187838;
4.761719;8.514223;12.066185;8.086415;8.165866;5.887748;6.517143;10.110881;8.940262;
4.765625;7.521693;11.764848;7.779424;7.189706;7.954518;6.677193;8.289109;8.952194;
4.769531;-1.202117;0.317048;-2.652307;-3.029118;1.691270;-0.413633;-1.253676;1.179573;
4.773438;-2.185508;-1.435093;-4.752448;-3.837101;-1.178200;-2.507714;-2.805183;-1.084846;
4.777344;7.572688;9.543668;5.798557;7.262013;5.907983;4.947460;7.263677;6.535744;
4.781250;16.224632;17.255730;15.450224;15.599860;16.072596;13.073874;16.591179;14.252607;
4.785156;15.311466;14.409101;15.039249;13.754628;17.839231;12.880569;16.079376;13.475231;
4.789063;3.900526;1.966790;3.307464;1.446505;6.146497;2.533473;5.161935;3.241810;
4.792969;1.366927;1.952287;1.479911;0.124915;0.483386;0.315343;2.582483;1.459139;
4.796875;6.660781;9.901592;7.611330;7.420799;4.696625;5.852794;7.628972;6.660835;
4.800781;4.979243;6.664114;5.351717;5.017453;5.993610;4.264572;6.324130;4.555024;
4.804688;0.882920;0.594164;0.951096;-0.472595;4.070141;-0.874592;2.732057;-0.305703;
4.808594;-2.647697;-2.895504;-2.477371;-4.572356;-0.252855;-5.111109;-0.406521;-3.994975;
4.812500;0.871297;3.264939;2.064756;-0.159540;1.582993;-2.725995;2.938323;-0.846885;
4.816406;6.206450;10.323792;7.947305;6.209243;7.181628;1.935484;8.193593;4.446273;
4.820313;1.901944;3.780201;2.121463;0.951033;5.259852;0.126074;4.787152;1.940430;
4.824219;-1.947901;-1.123081;-2.265591;-3.284000;2.167246;-1.150689;1.418653;-0.589676;
4.828125;-0.684576;1.245350;-0.182200;-1.610721;1.163903;-0.352149;1.701083;0.001163;
4.832031;5.294804;8.423356;6.796940;4.697309;3.955379;2.744028;5.914152;3.940727;
4.835938;7.302920;10.006021;9.097481;6.545433;5.449350;2.728565;7.270744;4.762399;
4.839844;-2.251075;-2.359128;-2.050467;-4.322526;-2.008584;-5.392837;-1.766190;-3.491050;
4.843750;-5.930909;-6.250146;-7.119591;-7.374323;-6.152527;-6.867834;-5.735881;-5.760908;
4.847656;0.029098;1.710324;-1.465704;0.333343;-3.264026;-0.204929;-0.510276;0.441174;
4.851563;7.032656;9.346965;6.143829;7.795424;1.901488;6.437015;5.761102;6.895060;
4.855469;7.423501;8.762877;7.357598;7.911655;3.548716;6.521574;5.840274;6.510993;
4.859375;-1.839503;-2.394033;-2.189039;-2.738584;-1.063690;-2.627706;-1.977621;-2.813346;
4.863281;-2.417046;-2.096050;-2.298061;-3.372512;2.300952;-4.012572;-0.940503;-3.395045;
4.867188;4.043443;6.363309;4.598870;4.281265;8.349694;2.438741;5.841360;3.851671;
4.871094;3.538396;5.681174;3.146360;3.565754;5.331248;3.701153;5.202784;4.855791;
4.875000;-1.285175;-0.272772;-2.279499;-2.151557;-0.051056;-0.217099;0.487180;0.122691;
4.878906;-7.001805;-7.492940;-7.905266;-8.713109;-4.565553;-6.329675;-5.180947;-6.479957;
4.882813;-3.783514;-3.344896;-2.992563;-4.187414;-2.182235;-4.439536;-2.899300;-4.230234;
4.886719;1.792392;3.598892;4.215557;3.417895;2.662021;0.267863;2.276707;1.322835;
4.890625;-2.088700;-2.202274;-0.581765;-0.839818;1.268216;-1.955091;-0.407559;-1.144897;
4.894531;-6.357400;-8.305935;-6.376841;-5.567485;-1.460744;-3.129020;-4.433938;-4.163818;
4.898438;-6.982285;-9.167913;-7.539585;-6.186512;-3.743235;-2.284563;-6.773273;-4.568974;
4.902344;0.213231;-0.316800;0.745485;1.567975;0.586988;2.628690;-1.451289;1.285987;
4.906250;6.648679;6.915666;7.729352;8.464644;5.618024;6.527221;4.616799;6.255685;
4.910156;-0.205710;-3.186260;-1.086867;0.208145;-1.162014;1.061041;-2.274830;-0.493377;
4.914063;-5.746347;-11.307162;-8.146948;-5.609643;-8.985810;-1.889013;-9.392256;-5.894274;
4.917969;-3.723820;-9.062551;-6.039008;-2.438587;-10.121949;0.469855;-8.646235;-4.057551;
4.921875;1.236802;-2.500726;0.350363;3.512782;-4.577530;3.937197;-3.310314;0.789122;
4.925781;0.987516;-2.297623;1.490579;3.596709;-1.237252;3.552488;-2.591898;0.513461;
4.929688;-8.957863;-14.465915;-8.908648;-7.612701;-7.623682;-4.845449;-11.818762;-9.219277;
4.933594;-10.898692;-16.376074;-10.772347;-9.751804;-8.238425;-7.804420;-13.750487;-11.779508;
4.937500;-3.722929;-7.026483;-2.850442;-2.284968;-2.189165;-3.833460;-6.602475;-5.698507;
4.941406;0.159109;-2.139163;1.276464;0.335917;-0.222252;-1.869133;-2.402616;-2.840129;
4.945313;-4.216022;-6.567445;-3.033783;-5.231616;-5.486062;-5.794180;-5.912874;-7.536939;
4.949219;-14.336069;-18.027302;-13.877657;-15.854947;-15.387072;-13.822768;-14.921678;-16.077652;
4.953125;-10.367981;-14.223798;-9.633524;-10.203116;-10.876411;-9.181331;-11.755743;-10.915339;
4.957031;2.395908;-1.334305;3.965957;4.301800;3.505895;2.550466;-1.061461;1.471779;
4.960938;2.462179;-2.351239;3.117264;3.409604;4.463990;2.117984;-1.737590;1.437112;
4.964844;-5.891168;-10.749755;-7.056766;-5.853455;-5.743621;-5.752389;-9.483629;-6.227661;
4.968750;-10.946671;-15.546022;-13.541656;-11.086829;-13.090920;-9.927247;-13.922937;-10.519156;
4.972656;-3.999980;-6.712417;-5.702691;-3.221592;-8.151763;-3.542826;-7.512828;-4.126729;
4.976563;1.498555;0.628918;1.182842;3.309805;-3.913235;1.446855;-2.759873;0.611112;
4.980469;-6.457050;-9.209210;-7.627510;-5.537561;-10.848049;-4.526648;-10.419393;-6.745288;
4.984375;-11.076293;-15.536766;-12.858588;-10.701906;-13.506878;-7.623230;-14.166562;-10.854333;
4.988281;-7.575009;-11.394920;-9.031012;-7.013231;-8.984567;-5.085834;-9.449031;-7.176655;
4.992188;-0.452868;-1.783227;-1.196736;0.922746;-2.483256;-0.032992;-1.712346;-0.150088;
4.996094;1.227156;1.182444;0.885641;3.261736;-0.760809;1.044503;-0.096295;1.329551;
5.000000;-7.562381;-9.816527;-8.684915;-6.723538;-7.725633;-6.179687;-8.621481;-7.083517;
5.003906;-10.327092;-13.237443;-11.472419;-9.600151;-10.604938;-8.238016;-11.657462;-10.092900;
5.007813;-5.789556;-7.311753;-6.183412;-4.052354;-7.924122;-4.813996;-8.058977;-6.443570;
5.011719;-0.498935;-0.555695;0.330050;1.515339;-2.739512;-1.130203;-2.811426;-1.759157;
5.015625;0.670322;1.543910;2.423487;1.988287;0.423404;-0.286104;0.197021;-0.131931;
5.019531;-6.508216;-6.873385;-6.080903;-7.062582;-5.370606;-5.958102;-5.005797;-6.051183;
5.023438;-7.313578;-7.559890;-7.705366;-7.729621;-7.777864;-6.581764;-6.135695;-7.230498;
5.027344;-2.258636;-1.145161;-1.497189;-1.626301;-4.302969;-3.318825;-2.185134;-3.559027;
5.031250;0.350951;0.995454;2.429715;0.143857;-1.153208;-1.709364;0.029855;-1.306617;
5.035156;1.187349;0.037555;3.104098;0.364621;-0.061439;0.913927;0.462967;0.210040;
5.039063;-2.741196;-6.433149;-2.990634;-3.208706;-4.869642;0.565632;-3.965771;-2.591603;
5.042969;0.203994;-3.052259;-0.839523;1.715872;-4.466667;4.206909;-2.009154;0.171455;
5.046875;8.843227;7.715117;8.364731;11.404856;1.935818;10.034483;5.639895;7.531068;
5.050781;9.284872;7.347804;8.242131;9.411216;4.858224;7.901595;6.098235;7.012738;
5.054688;3.592418;0.433757;2.131328;1.810810;4.992588;1.617033;1.613585;1.329359;
5.058594;-3.198946;-5.341080;-4.353867;-5.042607;1.303313;-4.436195;-3.180593;-3.790378;
5.062500;0.538886;1.997172;0.832871;-0.107709;2.656396;-0.564867;1.477308;1.141008;
5.066406;8.234115;11.863888;9.825010;8.729031;7.536801;7.877491;9.344772;8.819788;
5.070313;3.488644;5.107358;4.587829;3.246171;3.958859;5.379857;5.693077;4.505754;
5.074219;-3.730343;-3.499678;-2.926006;-4.258262;-1.523731;-1.466288;-0.633694;-2.727671;
5.078125;-4.714382;-4.090278;-3.644745;-5.094253;-3.193145;-4.304573;-2.023204;-4.604862;
5.082031;3.442381;5.060078;5.047258;3.131515;3.042786;1.961171;4.632761;2.413202;
5.085938;10.660851;12.454033;12.091666;10.167082;10.459656;8.761661;11.139036;9.529655;
5.089844;3.500023;4.127435;3.187449;1.034297;6.107974;2.313180;5.402711;3.817370;
5.093750;-2.464959;0.009080;-3.306897;-5.445054;0.609895;-4.079346;0.663273;-1.604849;
5.097656;0.392693;5.546414;0.044622;-0.986070;0.988541;-2.187504;3.089668;0.386294;
5.101563;4.915199;9.562990;4.480230;4.442652;4.145026;1.864314;6.902277;4.088953;
5.105469;3.968967;6.282741;2.922131;3.053611;4.688141;1.496555;6.785193;3.616170;
5.109375;-3.802146;-3.807835;-5.736275;-6.218200;-0.368298;-4.237115;1.248809;-2.574251;
5.113281;-0.443707;0.922152;-1.211959;-2.333899;3.343340;-0.560812;6.030103;0.618586;
5.117188;10.826667;15.057380;11.856027;10.477290;13.478035;8.961402;17.731585;10.517091;
5.121094;12.731946;17.322002;13.474626;11.773087;15.616749;10.212258;19.731133;12.380779;
5.125000;6.227278;9.993341;5.873255;4.098601;9.940536;4.919613;12.566126;6.772785;
5.128906;-2.140272;0.390120;-3.071077;-4.781682;1.828566;-1.846739;3.119541;-0.990285;
5.132813;-0.158634;3.983083;0.651046;-1.378983;3.045730;-0.870560;4.241195;0.165838;
5.136719;5.912173;12.956318;9.041107;5.907797;8.735956;2.667833;10.437179;5.564168;
5.140625;5.023951;11.154554;7.797034;3.604271;8.210914;1.640519;9.752172;5.699713;
5.144531;4.771135;8.678185;5.942751;2.973463;6.921822;3.426067;8.321993;6.495634;
5.148438;3.895518;6.862019;3.951284;3.500486;3.543594;4.659532;6.117307;6.218527;
5.152344;5.176601;9.700127;5.916057;6.687972;1.159633;6.089764;6.647246;7.481641;
5.156250;6.875196;12.394576;8.325385;9.015017;1.188602;6.696246;8.009059;8.768224;
5.160156;1.166281;3.315104;0.951918;1.323057;-0.773599;1.013412;2.105754;2.867892;
5.164063;-0.951723;-1.428182;-2.294773;-1.576826;1.765944;-0.825606;-0.956206;-0.267250;
5.167969;2.011992;1.880676;1.342772;2.086611;6.033606;1.311471;1.147717;1.263911;
5.171875;5.353191;6.504657;6.236893;5.647825;8.108513;2.638988;4.246878;3.388370;
5.175781;3.084390;4.047741;4.614942;2.661855;4.469051;-0.551306;1.884559;0.526793;
5.179688;-7.444397;-9.319397;-7.541595;-9.880803;-6.293611;-9.748328;-8.753021;-9.532035;
5.183594;-6.571508;-8.900423;-7.393399;-8.891220;-6.425651;-8.472517;-8.507413;-8.706005;
5.187500;5.800573;5.183849;5.893836;5.261109;4.973984;3.512538;3.569599;3.254359;
5.191406;13.822444;13.186481;14.652687;13.862742;13.817162;12.921050;11.979750;11.623835;
5.195313;11.986257;9.607615;12.460912;12.238394;13.120317;14.466567;10.417301;11.326973;
5.199219;2.176813;-1.954297;1.233680;2.442934;3.371041;7.690468;0.820005;4.039785;
5.203125;0.406210;-1.354662;-0.063886;1.900488;-0.046432;4.840366;-1.128995;3.020864;
5.207031;3.737757;5.250217;4.529136;6.404064;2.032013;5.290429;1.879552;5.438132;
5.210938;0.933234;1.927487;1.000667;2.672334;-0.114296;2.535951;-1.077949;2.786357;
5.214844;-2.548721;-2.816649;-3.634030;-1.619413;-2.910761;1.202671;-4.681718;0.551712;
5.218750;-4.709257;-5.658904;-6.049485;-4.315094;-5.088477;-0.097557;-6.611766;-1.061889;
5.222656;0.469017;0.485844;0.535863;1.402919;-1.353486;2.831605;-1.611642;2.395552;
5.226563;5.633947;6.513088;6.351046;7.551162;1.750144;6.374926;2.936521;6.204470;
5.230469;0.131773;-0.770950;-1.020794;1.140685;-4.104437;2.811472;-2.630865;2.203929;
5.234375;-3.964683;-5.700889;-6.106441;-3.427164;-7.440099;0.607962;-6.120214;-0.225307;
5.238281;-3.346580;-4.489537;-4.484376;-2.379170;-4.928867;0.894305;-4.629896;0.362461;
5.242188;0.341849;0.197909;1.602736;2.028617;2.143627;2.788365;-0.558392;2.582492;
5.246094;1.156521;0.838687;3.769607;3.007882;6.007721;2.587296;0.784155;2.263957;
5.250000;-5.034507;-7.796294;-4.475936;-4.884099;-0.125874;-2.776910;-4.864056;-3.470600;
5.253906;-4.162560;-6.648235;-5.555400;-4.428078;-3.374360;-2.157536;-4.895651;-2.441232;
5.257813;1.661889;2.198313;0.519779;2.359156;-2.016927;2.241454;0.301437;3.009836;
5.261719;4.492068;7.053384;4.631948;5.888416;-0.105632;4.816542;4.143211;5.692918;
5.265625;1.709081;3.600121;2.217060;3.445055;0.055803;2.983258;2.543637;3.126389;
5.269531;-7.936401;-9.069185;-8.645123;-7.303221;-4.879762;-6.275531;-6.968902;-5.867490;
5.273438;-8.526076;-9.999176;-8.943084;-7.785315;-3.700472;-8.591611;-8.748119;-7.171017;
5.277344;-1.686688;-1.781481;-0.795095;-0.021951;1.548279;-3.649489;-2.670713;-2.224981;
5.281250;-0.408027;-0.618770;0.733385;-0.025785;1.019100;-3.293712;-0.495883;-2.248037;
5.285156;-4.052023;-4.203269;-3.306035;-5.627319;-3.738495;-7.480851;-2.486691;-5.971333;
5.289063;-9.847580;-9.778763;-9.996384;-12.514627;-9.108242;-12.769810;-6.920297;-10.723828;
5.292969;-6.130247;-4.442347;-5.740120;-7.394943;-3.762620;-8.953013;-3.536252;-7.057358;
5.296875;1.873151;4.591771;3.184143;2.338811;5.643204;-1.365494;3.165718;-0.158094;
5.300781;0.556379;1.504393;0.993516;0.190024;4.192722;-1.900333;1.711086;-1.369700;
5.304688;-4.254291;-4.379248;-4.503811;-5.209646;-2.285305;-5.718428;-2.386789;-5.219593;
5.308594;-7.996870;-8.462300;-7.849796;-8.658833;-6.797066;-9.490303;-5.929750;-8.731790;
5.312500;-4.468977;-4.274168;-2.516052;-4.260960;-3.010562;-7.569334;-3.223616;-6.935002;
5.316406;-0.453089;0.409136;2.450493;-0.137038;1.517935;-4.974429;0.172071;-4.566726;
5.320313;-5.011682;-5.701080;-4.314889;-6.767020;-2.937843;-8.722163;-4.140337;-8.375588;
5.324219;-4.888952;-5.603019;-5.890726;-6.995224;-5.121739;-6.968704;-3.779623;-6.868414;
5.328125;0.279090;1.392846;-0.194763;-0.319690;-2.288747;-0.715308;1.629931;-1.120108;
5.332031;5.837858;8.334944;6.816868;6.264823;4.717827;4.555871;6.901011;3.676570;
5.335938;7.217976;8.807566;8.478517;7.656593;9.738552;5.682588;7.509424;4.375394;
